X	Y	C	Z	T	Intensity	BG	MX
657.000	492.000	1	1	1	143.136	103.434	133.746
657.707	492.707	1	1	1	143.128	103.434	133.746
658.663	493.000	1	1	1	140.745	103.434	133.746
659.518	493.518	1	1	1	137.317	103.434	133.746
660.395	494.000	1	1	1	128.728	103.434	133.746
661.395	494.000	1	1	1	135.792	103.434	133.746
662.336	494.336	1	1	1	131.932	103.434	133.746
663.085	495.000	1	1	1	126.458	103.434	133.746
664.084	495.042	1	1	1	126.318	103.434	133.746
664.978	495.489	1	1	1	128.315	103.434	133.746
665.873	495.936	1	1	1	125.798	103.434	133.746
666.611	496.611	1	1	1	121.457	103.434	133.746
667.532	497.000	1	1	1	122.714	103.434	133.746
668.532	497.000	1	1	1	125.783	103.434	133.746
669.532	497.000	1	1	1	127.117	103.434	133.746
670.000	497.884	1	1	1	127.440	103.434	133.746
670.993	498.000	1	1	1	134.543	103.434	133.746
671.000	499.000	1	1	1	138.969	103.434	133.746
671.894	499.447	1	1	1	138.358	103.434	133.746
672.789	499.894	1	1	1	136.384	103.434	133.746
673.783	500.000	1	1	1	141.520	103.434	133.746
674.783	500.000	1	1	1	143.009	103.434	133.746
675.590	500.590	1	1	1	145.230	103.434	133.746
676.297	501.297	1	1	1	141.151	103.434	133.746
677.009	502.000	1	1	1	132.854	103.434	133.746
678.009	502.009	1	1	1	124.676	103.434	133.746
678.716	502.716	1	1	1	131.311	103.434	133.746
679.675	503.000	1	1	1	130.339	103.434	133.746
680.526	503.526	1	1	1	130.805	103.434	133.746
681.233	504.233	1	1	1	129.108	103.434	133.746
681.940	504.940	1	1	1	128.484	103.434	133.746
682.938	505.000	1	1	1	132.007	103.434	133.746
683.676	505.676	1	1	1	131.128	103.434	133.746
684.383	506.383	1	1	1	134.429	103.434	133.746
685.169	507.000	1	1	1	133.304	103.434	133.746
686.000	507.557	1	1	1	131.934	103.434	133.746
686.896	508.000	1	1	1	136.545	103.434	133.746
687.000	508.995	1	1	1	133.006	103.434	133.746
688.000	509.000	1	1	1	126.763	103.434	133.746
689.000	509.000	1	1	1	136.004	103.434	133.746
689.000	510.000	1	1	1	129.301	103.434	133.746
690.000	510.000	1	1	1	134.960	103.434	133.746
690.707	510.707	1	1	1	125.168	103.434	133.746
691.663	511.000	1	1	1	120.731	103.434	133.746
692.000	511.942	1	1	1	126.384	103.434	133.746
692.998	512.000	1	1	1	125.785	103.434	133.746
693.000	513.000	1	1	1	128.706	103.434	133.746
694.000	513.000	1	1	1	134.352	103.434	133.746
695.000	513.000	1	1	1	130.555	103.434	133.746
695.000	514.000	1	1	1	129.737	103.434	133.746
696.000	514.000	1	1	1	127.945	103.434	133.746
696.707	514.707	1	1	1	127.809	103.434	133.746
697.663	515.000	1	1	1	132.909	103.434	133.746
698.000	515.942	1	1	1	130.567	103.434	133.746
698.998	516.000	1	1	1	124.207	103.434	133.746
699.706	516.706	1	1	1	123.296	103.434	133.746
700.534	517.267	1	1	1	123.177	103.434	133.746
701.429	517.714	1	1	1	120.936	103.434	133.746
702.264	518.264	1	1	1	129.392	103.434	133.746
702.971	518.971	1	1	1	132.079	103.434	133.746
703.971	519.000	1	1	1	127.936	103.434	133.746
704.000	520.000	1	1	1	128.437	103.434	133.746
705.000	520.000	1	1	1	129.547	103.434	133.746
705.707	520.707	1	1	1	125.520	103.434	133.746
706.663	521.000	1	1	1	120.673	103.434	133.746
707.518	521.518	1	1	1	114.239	103.434	133.746
708.226	522.226	1	1	1	121.864	103.434	133.746
708.933	522.933	1	1	1	122.073	103.434	133.746
709.930	523.000	1	1	1	124.273	103.434	133.746
710.000	523.998	1	1	1	130.437	103.434	133.746
711.000	524.000	1	1	1	132.232	103.434	133.746
711.000	525.000	1	1	1	132.294	103.434	133.746
712.000	525.000	1	1	1	125.050	103.434	133.746
712.000	526.000	1	1	1	120.429	103.434	133.746
712.707	526.707	1	1	1	125.853	103.434	133.746
713.663	527.000	1	1	1	132.380	103.434	133.746
714.518	527.518	1	1	1	137.064	103.434	133.746
715.226	528.226	1	1	1	133.824	103.434	133.746
715.933	528.933	1	1	1	131.095	103.434	133.746
716.930	529.000	1	1	1	135.932	103.434	133.746
717.000	529.998	1	1	1	138.778	103.434	133.746
718.000	530.000	1	1	1	136.549	103.434	133.746
718.707	530.707	1	1	1	126.085	103.434	133.746
719.663	531.000	1	1	1	134.152	103.434	133.746
720.518	531.518	1	1	1	147.361	103.434	133.746
721.226	532.226	1	1	1	141.379	103.434	133.746
721.933	532.933	1	1	1	131.476	103.434	133.746
722.640	533.640	1	1	1	132.433	103.434	133.746
723.347	534.347	1	1	1	133.944	103.434	133.746
724.104	535.000	1	1	1	134.081	103.434	133.746
725.104	535.000	1	1	1	132.153	103.434	133.746
726.000	535.444	1	1	1	136.405	103.434	133.746
726.831	536.000	1	1	1	139.575	103.434	133.746
727.000	536.986	1	1	1	147.121	103.434	133.746
728.000	537.000	1	1	1	147.225	103.434	133.746
728.707	537.707	1	1	1	145.434	103.434	133.746
729.414	538.414	1	1	1	163.368	103.434	133.746
730.225	539.000	1	1	1	171.050	103.434	133.746
731.000	539.631	1	1	1	168.392	103.434	133.746
731.930	540.000	1	1	1	159.604	103.434	133.746
732.671	540.671	1	1	1	160.450	103.434	133.746
733.615	541.000	1	1	1	163.979	103.434	133.746
734.488	541.488	1	1	1	158.220	103.434	133.746
735.347	542.000	1	1	1	151.171	103.434	133.746
736.347	542.000	1	1	1	149.512	103.434	133.746
737.301	542.301	1	1	1	150.922	103.434	133.746
738.016	543.000	1	1	1	144.936	103.434	133.746
739.016	543.000	1	1	1	150.973	103.434	133.746
740.016	543.000	1	1	1	145.368	103.434	133.746
741.016	543.000	1	1	1	140.456	103.434	133.746
742.016	543.000	1	1	1	142.146	103.434	133.746
743.016	543.000	1	1	1	143.092	103.434	133.746
744.016	543.000	1	1	1	145.690	103.434	133.746
745.016	543.000	1	1	1	149.875	103.434	133.746
746.016	543.000	1	1	1	150.144	103.434	133.746
747.016	543.000	1	1	1	149.840	103.434	133.746
748.016	543.000	1	1	1	152.942	103.434	133.746
749.016	543.000	1	1	1	154.977	103.434	133.746
750.016	543.000	1	1	1	159.486	103.434	133.746
751.016	543.000	1	1	1	162.451	103.434	133.746
752.016	543.000	1	1	1	162.542	103.434	133.746
753.016	543.000	1	1	1	163.484	103.434	133.746
754.016	543.000	1	1	1	161.151	103.434	133.746
755.016	543.000	1	1	1	154.615	103.434	133.746
756.016	543.000	1	1	1	143.457	103.434	133.746
757.016	543.000	1	1	1	141.806	103.434	133.746
758.016	543.016	1	1	1	145.608	103.434	133.746
758.723	543.723	1	1	1	145.583	103.434	133.746
759.684	544.000	1	1	1	140.565	103.434	133.746
760.684	544.000	1	1	1	139.372	103.434	133.746
761.684	544.000	1	1	1	133.584	103.434	133.746
762.684	544.000	1	1	1	131.391	103.434	133.746
763.684	544.000	1	1	1	126.262	103.434	133.746
764.684	544.000	1	1	1	130.879	103.434	133.746
765.531	544.531	1	1	1	138.071	103.434	133.746
766.414	545.000	1	1	1	140.543	103.434	133.746
767.414	545.000	1	1	1	147.127	103.434	133.746
768.395	545.197	1	1	1	140.512	103.434	133.746
769.289	545.645	1	1	1	135.291	103.434	133.746
770.224	546.000	1	1	1	134.454	103.434	133.746
771.203	546.203	1	1	1	125.268	103.434	133.746
771.910	546.910	1	1	1	124.590	103.434	133.746
772.906	547.000	1	1	1	129.172	103.434	133.746
773.906	547.000	1	1	1	130.952	103.434	133.746
774.659	547.659	1	1	1	138.040	103.434	133.746
775.598	548.000	1	1	1	135.744	103.434	133.746
776.477	548.477	1	1	1	137.714	103.434	133.746
777.330	549.000	1	1	1	139.498	103.434	133.746
778.287	549.287	1	1	1	143.848	103.434	133.746
778.995	549.995	1	1	1	139.332	103.434	133.746
779.702	550.702	1	1	1	145.907	103.434	133.746
780.656	551.000	1	1	1	153.306	103.434	133.746
781.000	551.939	1	1	1	151.722	103.434	133.746
781.998	552.000	1	1	1	141.253	103.434	133.746
782.706	552.706	1	1	1	142.709	103.434	133.746
783.534	553.267	1	1	1	147.452	103.434	133.746
784.429	553.714	1	1	1	149.792	103.434	133.746
785.264	554.264	1	1	1	148.099	103.434	133.746
785.971	554.971	1	1	1	150.231	103.434	133.746
786.971	555.000	1	1	1	148.433	103.434	133.746
787.692	555.692	1	1	1	152.071	103.434	133.746
788.644	556.000	1	1	1	159.034	103.434	133.746
789.000	556.934	1	1	1	156.165	103.434	133.746
789.998	557.000	1	1	1	153.552	103.434	133.746
790.998	557.000	1	1	1	151.482	103.434	133.746
791.000	558.000	1	1	1	152.149	103.434	133.746
792.000	558.000	1	1	1	146.866	103.434	133.746
792.707	558.707	1	1	1	152.211	103.434	133.746
793.535	559.268	1	1	1	144.221	103.434	133.746
794.430	559.715	1	1	1	143.019	103.434	133.746
795.388	560.000	1	1	1	144.996	103.434	133.746
796.000	560.791	1	1	1	139.062	103.434	133.746
796.978	561.000	1	1	1	129.841	103.434	133.746
797.978	561.000	1	1	1	132.732	103.434	133.746
798.978	561.000	1	1	1	132.167	103.434	133.746
799.000	562.000	1	1	1	134.393	103.434	133.746
800.000	562.000	1	1	1	138.891	103.434	133.746
801.000	562.000	1	1	1	137.110	103.434	133.746
801.707	562.707	1	1	1	136.851	103.434	133.746
802.663	563.000	1	1	1	138.299	103.434	133.746
803.663	563.000	1	1	1	129.464	103.434	133.746
804.663	563.000	1	1	1	138.147	103.434	133.746
805.663	563.000	1	1	1	139.174	103.434	133.746
806.663	563.000	1	1	1	134.061	103.434	133.746
807.663	563.000	1	1	1	126.431	103.434	133.746
808.663	563.000	1	1	1	128.550	103.434	133.746
809.663	563.000	1	1	1	134.509	103.434	133.746
810.663	563.000	1	1	1	136.210	103.434	133.746
811.663	563.000	1	1	1	136.604	103.434	133.746
812.663	563.000	1	1	1	131.528	103.434	133.746
813.663	563.000	1	1	1	132.222	103.434	133.746
814.663	563.000	1	1	1	134.012	103.434	133.746
815.663	563.000	1	1	1	136.481	103.434	133.746
816.663	563.000	1	1	1	142.089	103.434	133.746
817.663	563.000	1	1	1	150.280	103.434	133.746
818.663	563.000	1	1	1	161.063	103.434	133.746
819.663	563.000	1	1	1	143.143	103.434	133.746
820.663	563.000	1	1	1	147.309	103.434	133.746
821.663	563.000	1	1	1	141.390	103.434	133.746
822.518	563.518	1	1	1	143.210	103.434	133.746
823.395	564.000	1	1	1	140.080	103.434	133.746
824.395	564.000	1	1	1	136.754	103.434	133.746
825.336	564.336	1	1	1	137.400	103.434	133.746
826.085	565.000	1	1	1	138.027	103.434	133.746
827.085	565.000	1	1	1	140.359	103.434	133.746
828.081	565.081	1	1	1	138.604	103.434	133.746
828.788	565.788	1	1	1	144.177	103.434	133.746
829.766	566.000	1	1	1	141.016	103.434	133.746
830.580	566.580	1	1	1	137.185	103.434	133.746
831.488	567.000	1	1	1	143.021	103.434	133.746
832.403	567.403	1	1	1	141.444	103.434	133.746
833.110	568.110	1	1	1	129.979	103.434	133.746
833.817	568.817	1	1	1	130.996	103.434	133.746
834.524	569.524	1	1	1	137.137	103.434	133.746
835.231	570.231	1	1	1	143.161	103.434	133.746
835.939	570.939	1	1	1	146.303	103.434	133.746
836.646	571.646	1	1	1	156.360	103.434	133.746
837.353	572.353	1	1	1	144.082	103.434	133.746
838.060	573.060	1	1	1	132.597	103.434	133.746
838.767	573.767	1	1	1	128.815	103.434	133.746
839.474	574.474	1	1	1	128.572	103.434	133.746
840.181	575.181	1	1	1	140.233	103.434	133.746
840.888	575.888	1	1	1	136.646	103.434	133.746
841.882	576.000	1	1	1	130.904	103.434	133.746
842.000	576.993	1	1	1	127.741	103.434	133.746
842.000	577.993	1	1	1	137.458	103.434	133.746
					143.636		
