X	Y	C	Z	T	Intensity	BG	MX
799.000	644.000	1	1	1	141.667	103.434	133.746
799.000	643.000	1	1	1	140.335	103.434	133.746
799.000	642.000	1	1	1	141.016	103.434	133.746
799.000	641.000	1	1	1	147.948	103.434	133.746
799.000	640.000	1	1	1	137.418	103.434	133.746
799.000	639.000	1	1	1	141.497	103.434	133.746
798.293	638.293	1	1	1	140.598	103.434	133.746
798.000	637.337	1	1	1	148.113	103.434	133.746
797.482	636.482	1	1	1	145.343	103.434	133.746
796.774	635.774	1	1	1	145.026	103.434	133.746
796.067	635.067	1	1	1	147.534	103.434	133.746
796.000	634.070	1	1	1	145.579	103.434	133.746
795.581	633.162	1	1	1	155.993	103.434	133.746
795.134	632.267	1	1	1	159.336	103.434	133.746
794.686	631.373	1	1	1	152.878	103.434	133.746
794.239	630.478	1	1	1	149.952	103.434	133.746
793.662	629.662	1	1	1	144.574	103.434	133.746
792.912	629.000	1	1	1	148.754	103.434	133.746
792.000	628.591	1	1	1	137.075	103.434	133.746
791.653	627.653	1	1	1	135.599	103.434	133.746
791.000	626.895	1	1	1	138.760	103.434	133.746
790.555	626.000	1	1	1	130.821	103.434	133.746
790.000	625.168	1	1	1	129.846	103.434	133.746
789.014	625.000	1	1	1	126.487	103.434	133.746
789.000	624.000	1	1	1	131.744	103.434	133.746
788.293	623.293	1	1	1	136.925	103.434	133.746
788.000	622.337	1	1	1	132.881	103.434	133.746
787.058	622.000	1	1	1	127.392	103.434	133.746
787.000	621.002	1	1	1	130.376	103.434	133.746
786.294	620.294	1	1	1	125.001	103.434	133.746
785.587	619.587	1	1	1	128.393	103.434	133.746
785.000	618.777	1	1	1	124.218	103.434	133.746
784.370	618.000	1	1	1	126.553	103.434	133.746
784.000	617.071	1	1	1	131.254	103.434	133.746
783.003	617.000	1	1	1	137.774	103.434	133.746
782.294	616.294	1	1	1	139.314	103.434	133.746
782.000	615.338	1	1	1	142.042	103.434	133.746
781.059	615.000	1	1	1	140.928	103.434	133.746
781.000	614.002	1	1	1	147.720	103.434	133.746
780.000	614.000	1	1	1	145.646	103.434	133.746
780.000	613.000	1	1	1	138.302	103.434	133.746
779.000	613.000	1	1	1	141.263	103.434	133.746
779.000	612.000	1	1	1	139.024	103.434	133.746
778.293	611.293	1	1	1	131.425	103.434	133.746
778.000	610.337	1	1	1	130.716	103.434	133.746
777.482	609.482	1	1	1	131.631	103.434	133.746
776.774	608.774	1	1	1	129.944	103.434	133.746
776.067	608.067	1	1	1	130.996	103.434	133.746
776.000	607.070	1	1	1	127.849	103.434	133.746
776.000	606.070	1	1	1	130.501	103.434	133.746
775.329	605.329	1	1	1	124.095	103.434	133.746
775.000	604.384	1	1	1	125.386	103.434	133.746
775.000	603.384	1	1	1	127.293	103.434	133.746
775.000	602.384	1	1	1	128.160	103.434	133.746
775.000	601.384	1	1	1	131.994	103.434	133.746
775.000	600.384	1	1	1	125.623	103.434	133.746
775.000	599.384	1	1	1	125.602	103.434	133.746
775.488	598.512	1	1	1	130.218	103.434	133.746
776.000	597.652	1	1	1	137.437	103.434	133.746
776.301	596.699	1	1	1	132.236	103.434	133.746
777.017	596.000	1	1	1	132.961	103.434	133.746
778.017	595.983	1	1	1	128.493	103.434	133.746
778.724	595.276	1	1	1	133.267	103.434	133.746
779.556	594.722	1	1	1	137.242	103.434	133.746
780.450	594.275	1	1	1	132.931	103.434	133.746
781.412	594.000	1	1	1	126.281	103.434	133.746
782.412	594.000	1	1	1	126.436	103.434	133.746
783.349	593.651	1	1	1	132.577	103.434	133.746
784.108	593.000	1	1	1	139.739	103.434	133.746
785.108	593.000	1	1	1	142.089	103.434	133.746
786.108	593.000	1	1	1	139.428	103.434	133.746
787.107	592.947	1	1	1	143.245	103.434	133.746
788.001	592.499	1	1	1	139.713	103.434	133.746
788.895	592.052	1	1	1	134.918	103.434	133.746
789.894	592.000	1	1	1	136.056	103.434	133.746
790.894	592.000	1	1	1	135.695	103.434	133.746
791.894	592.000	1	1	1	142.417	103.434	133.746
792.894	592.000	1	1	1	134.673	103.434	133.746
793.894	592.000	1	1	1	126.044	103.434	133.746
794.894	592.000	1	1	1	124.934	103.434	133.746
795.652	591.348	1	1	1	134.283	103.434	133.746
796.590	591.000	1	1	1	127.772	103.434	133.746
797.000	590.088	1	1	1	129.580	103.434	133.746
797.000	589.088	1	1	1	136.815	103.434	133.746
797.000	588.088	1	1	1	137.327	103.434	133.746
797.000	587.088	1	1	1	139.849	103.434	133.746
797.000	586.088	1	1	1	124.356	103.434	133.746
796.338	585.338	1	1	1	132.727	103.434	133.746
795.631	584.631	1	1	1	129.265	103.434	133.746
794.924	583.924	1	1	1	134.809	103.434	133.746
794.217	583.217	1	1	1	131.110	103.434	133.746
793.370	582.685	1	1	1	130.334	103.434	133.746
792.476	582.238	1	1	1	133.576	103.434	133.746
791.660	581.660	1	1	1	139.956	103.434	133.746
790.953	580.953	1	1	1	148.128	103.434	133.746
790.246	580.246	1	1	1	156.415	103.434	133.746
789.538	579.538	1	1	1	160.530	103.434	133.746
788.831	578.831	1	1	1	147.602	103.434	133.746
788.124	578.124	1	1	1	145.043	103.434	133.746
787.256	577.628	1	1	1	145.473	103.434	133.746
786.362	577.181	1	1	1	139.408	103.434	133.746
785.570	576.570	1	1	1	141.315	103.434	133.746
784.863	575.863	1	1	1	137.250	103.434	133.746
784.156	575.156	1	1	1	145.065	103.434	133.746
783.647	574.295	1	1	1	148.033	103.434	133.746
783.200	573.400	1	1	1	147.604	103.434	133.746
782.458	572.729	1	1	1	148.277	103.434	133.746
781.564	572.282	1	1	1	133.711	103.434	133.746
780.730	571.730	1	1	1	139.870	103.434	133.746
780.023	571.023	1	1	1	142.136	103.434	133.746
779.316	570.316	1	1	1	139.363	103.434	133.746
778.609	569.609	1	1	1	138.999	103.434	133.746
777.816	569.000	1	1	1	140.343	103.434	133.746
776.830	568.830	1	1	1	147.347	103.434	133.746
776.123	568.123	1	1	1	153.944	103.434	133.746
775.254	567.627	1	1	1	168.678	103.434	133.746
774.360	567.180	1	1	1	180.434	103.434	133.746
773.569	566.569	1	1	1	171.293	103.434	133.746
772.817	565.909	1	1	1	164.329	103.434	133.746
771.923	565.461	1	1	1	158.834	103.434	133.746
771.029	565.014	1	1	1	152.770	103.434	133.746
770.314	564.314	1	1	1	138.695	103.434	133.746
769.607	563.607	1	1	1	131.882	103.434	133.746
768.900	562.900	1	1	1	138.909	103.434	133.746
768.193	562.193	1	1	1	132.753	103.434	133.746
767.486	561.486	1	1	1	135.835	103.434	133.746
766.612	561.000	1	1	1	135.620	103.434	133.746
765.668	560.668	1	1	1	140.061	103.434	133.746
765.000	559.925	1	1	1	140.891	103.434	133.746
764.619	559.000	1	1	1	152.370	103.434	133.746
764.000	558.215	1	1	1	154.239	103.434	133.746
764.000	557.215	1	1	1	161.110	103.434	133.746
764.000	556.215	1	1	1	153.992	103.434	133.746
764.000	555.215	1	1	1	158.064	103.434	133.746
764.000	554.215	1	1	1	150.775	103.434	133.746
764.000	553.215	1	1	1	147.851	103.434	133.746
764.591	552.409	1	1	1	150.619	103.434	133.746
765.000	551.496	1	1	1	148.293	103.434	133.746
765.000	550.496	1	1	1	148.032	103.434	133.746
765.000	549.496	1	1	1	142.313	103.434	133.746
765.000	548.496	1	1	1	134.830	103.434	133.746
764.132	548.000	1	1	1	140.037	103.434	133.746
764.000	547.009	1	1	1	132.431	103.434	133.746
763.297	546.297	1	1	1	134.823	103.434	133.746
762.470	545.735	1	1	1	132.860	103.434	133.746
761.576	545.288	1	1	1	136.690	103.434	133.746
760.740	544.740	1	1	1	132.695	103.434	133.746
760.032	544.032	1	1	1	137.155	103.434	133.746
759.325	543.325	1	1	1	147.468	103.434	133.746
758.618	542.618	1	1	1	156.875	103.434	133.746
757.832	542.000	1	1	1	145.851	103.434	133.746
757.000	541.446	1	1	1	138.324	103.434	133.746
756.105	541.000	1	1	1	138.735	103.434	133.746
755.105	541.000	1	1	1	134.371	103.434	133.746
754.190	540.595	1	1	1	148.299	103.434	133.746
753.296	540.148	1	1	1	161.049	103.434	133.746
752.401	539.701	1	1	1	167.749	103.434	133.746
751.507	539.254	1	1	1	180.394	103.434	133.746
750.685	538.685	1	1	1	189.230	103.434	133.746
749.978	537.978	1	1	1	183.068	103.434	133.746
749.270	537.270	1	1	1	180.259	103.434	133.746
748.563	536.563	1	1	1	164.544	103.434	133.746
747.810	535.905	1	1	1	145.546	103.434	133.746
746.916	535.458	1	1	1	132.465	103.434	133.746
746.022	535.011	1	1	1	133.707	103.434	133.746
745.309	534.309	1	1	1	143.498	103.434	133.746
744.485	533.743	1	1	1	143.115	103.434	133.746
743.591	533.295	1	1	1	143.274	103.434	133.746
742.635	533.000	1	1	1	140.729	103.434	133.746
742.000	532.228	1	1	1	135.219	103.434	133.746
742.000	531.228	1	1	1	136.331	103.434	133.746
741.026	531.000	1	1	1	126.900	103.434	133.746
741.000	530.000	1	1	1	124.663	103.434	133.746
740.293	529.293	1	1	1	131.444	103.434	133.746
740.000	528.337	1	1	1	132.197	103.434	133.746
740.000	527.337	1	1	1	135.522	103.434	133.746
740.000	526.337	1	1	1	139.830	103.434	133.746
740.000	525.337	1	1	1	148.017	103.434	133.746
740.000	524.337	1	1	1	153.088	103.434	133.746
740.000	523.337	1	1	1	156.637	103.434	133.746
740.000	522.337	1	1	1	154.257	103.434	133.746
740.000	521.337	1	1	1	146.158	103.434	133.746
740.000	520.337	1	1	1	139.023	103.434	133.746
740.000	519.337	1	1	1	140.984	103.434	133.746
740.000	518.337	1	1	1	145.882	103.434	133.746
740.000	517.337	1	1	1	134.229	103.434	133.746
740.000	516.337	1	1	1	132.339	103.434	133.746
740.000	515.337	1	1	1	140.016	103.434	133.746
740.000	514.337	1	1	1	146.017	103.434	133.746
740.000	513.337	1	1	1	139.611	103.434	133.746
740.000	512.337	1	1	1	129.619	103.434	133.746
740.000	511.337	1	1	1	122.900	103.434	133.746
739.482	510.482	1	1	1	121.043	103.434	133.746
739.000	509.605	1	1	1	126.202	103.434	133.746
738.204	509.000	1	1	1	130.421	103.434	133.746
738.000	508.021	1	1	1	125.704	103.434	133.746
737.303	507.303	1	1	1	132.652	103.434	133.746
736.596	506.596	1	1	1	131.400	103.434	133.746
736.000	505.794	1	1	1	134.229	103.434	133.746
735.812	504.812	1	1	1	143.244	103.434	133.746
735.104	504.104	1	1	1	139.513	103.434	133.746
734.397	503.397	1	1	1	133.968	103.434	133.746
733.690	502.690	1	1	1	126.013	103.434	133.746
732.989	501.978	1	1	1	125.530	103.434	133.746
732.542	501.083	1	1	1	124.428	103.434	133.746
732.094	500.189	1	1	1	122.934	103.434	133.746
731.436	499.436	1	1	1	125.909	103.434	133.746
730.729	498.729	1	1	1	125.990	103.434	133.746
730.022	498.022	1	1	1	125.717	103.434	133.746
729.315	497.315	1	1	1	128.783	103.434	133.746
729.000	496.366	1	1	1	128.582	103.434	133.746
728.500	495.500	1	1	1	137.852	103.434	133.746
727.793	494.793	1	1	1	143.967	103.434	133.746
727.085	494.085	1	1	1	146.048	103.434	133.746
726.378	493.378	1	1	1	139.237	103.434	133.746
725.671	492.671	1	1	1	138.779	103.434	133.746
724.964	491.964	1	1	1	135.288	103.434	133.746
724.257	491.257	1	1	1	142.939	103.434	133.746
723.550	490.550	1	1	1	137.545	103.434	133.746
723.000	489.715	1	1	1	129.659	103.434	133.746
722.301	489.000	1	1	1	127.540	103.434	133.746
722.000	488.046	1	1	1	133.106	103.434	133.746
721.125	487.562	1	1	1	141.960	103.434	133.746
720.230	487.115	1	1	1	148.576	103.434	133.746
719.468	486.468	1	1	1	147.144	103.434	133.746
718.761	485.761	1	1	1	150.363	103.434	133.746
718.054	485.054	1	1	1	155.002	103.434	133.746
717.170	484.585	1	1	1	152.610	103.434	133.746
716.276	484.138	1	1	1	147.492	103.434	133.746
715.671	483.342	1	1	1	142.714	103.434	133.746
715.224	482.447	1	1	1	145.490	103.434	133.746
714.637	481.637	1	1	1	144.150	103.434	133.746
714.000	480.867	1	1	1	143.918	103.434	133.746
713.501	480.000	1	1	1	143.477	103.434	133.746
712.501	480.000	1	1	1	145.148	103.434	133.746
712.000	479.135	1	1	1	142.746	103.434	133.746
711.009	479.000	1	1	1	137.026	103.434	133.746
710.297	478.297	1	1	1	133.263	103.434	133.746
709.343	478.000	1	1	1	134.402	103.434	133.746
708.485	477.485	1	1	1	132.826	103.434	133.746
