X	Y	C	Z	T	Intensity	BG	MX
799.000	644.000	2	1	1	117.000	101.316	403.243
799.000	643.000	2	1	1	118.329	101.316	403.243
799.000	642.000	2	1	1	114.660	101.316	403.243
799.000	641.000	2	1	1	112.017	101.316	403.243
799.000	640.000	2	1	1	118.243	101.316	403.243
799.000	639.000	2	1	1	115.395	101.316	403.243
798.293	638.293	2	1	1	118.601	101.316	403.243
798.000	637.337	2	1	1	116.795	101.316	403.243
797.482	636.482	2	1	1	116.092	101.316	403.243
796.774	635.774	2	1	1	121.048	101.316	403.243
796.067	635.067	2	1	1	116.155	101.316	403.243
796.000	634.070	2	1	1	109.446	101.316	403.243
795.581	633.162	2	1	1	114.116	101.316	403.243
795.134	632.267	2	1	1	116.741	101.316	403.243
794.686	631.373	2	1	1	117.419	101.316	403.243
794.239	630.478	2	1	1	112.602	101.316	403.243
793.662	629.662	2	1	1	121.704	101.316	403.243
792.912	629.000	2	1	1	119.980	101.316	403.243
792.000	628.591	2	1	1	117.791	101.316	403.243
791.653	627.653	2	1	1	114.182	101.316	403.243
791.000	626.895	2	1	1	108.054	101.316	403.243
790.555	626.000	2	1	1	113.906	101.316	403.243
790.000	625.168	2	1	1	115.364	101.316	403.243
789.014	625.000	2	1	1	115.562	101.316	403.243
789.000	624.000	2	1	1	119.413	101.316	403.243
788.293	623.293	2	1	1	117.015	101.316	403.243
788.000	622.337	2	1	1	117.571	101.316	403.243
787.058	622.000	2	1	1	115.492	101.316	403.243
787.000	621.002	2	1	1	118.814	101.316	403.243
786.294	620.294	2	1	1	119.728	101.316	403.243
785.587	619.587	2	1	1	120.528	101.316	403.243
785.000	618.777	2	1	1	116.414	101.316	403.243
784.370	618.000	2	1	1	115.056	101.316	403.243
784.000	617.071	2	1	1	119.186	101.316	403.243
783.003	617.000	2	1	1	120.070	101.316	403.243
782.294	616.294	2	1	1	118.321	101.316	403.243
782.000	615.338	2	1	1	115.261	101.316	403.243
781.059	615.000	2	1	1	113.984	101.316	403.243
781.000	614.002	2	1	1	114.687	101.316	403.243
780.000	614.000	2	1	1	117.035	101.316	403.243
780.000	613.000	2	1	1	120.831	101.316	403.243
779.000	613.000	2	1	1	119.348	101.316	403.243
779.000	612.000	2	1	1	118.954	101.316	403.243
778.293	611.293	2	1	1	117.142	101.316	403.243
778.000	610.337	2	1	1	115.994	101.316	403.243
777.482	609.482	2	1	1	116.710	101.316	403.243
776.774	608.774	2	1	1	112.310	101.316	403.243
776.067	608.067	2	1	1	118.581	101.316	403.243
776.000	607.070	2	1	1	114.487	101.316	403.243
776.000	606.070	2	1	1	110.616	101.316	403.243
775.329	605.329	2	1	1	121.525	101.316	403.243
775.000	604.384	2	1	1	121.281	101.316	403.243
775.000	603.384	2	1	1	118.696	101.316	403.243
775.000	602.384	2	1	1	118.423	101.316	403.243
775.000	601.384	2	1	1	115.152	101.316	403.243
775.000	600.384	2	1	1	111.148	101.316	403.243
775.000	599.384	2	1	1	113.788	101.316	403.243
775.488	598.512	2	1	1	116.179	101.316	403.243
776.000	597.652	2	1	1	117.402	101.316	403.243
776.301	596.699	2	1	1	118.459	101.316	403.243
777.017	596.000	2	1	1	117.555	101.316	403.243
778.017	595.983	2	1	1	116.790	101.316	403.243
778.724	595.276	2	1	1	111.565	101.316	403.243
779.556	594.722	2	1	1	116.131	101.316	403.243
780.450	594.275	2	1	1	116.392	101.316	403.243
781.412	594.000	2	1	1	113.376	101.316	403.243
782.412	594.000	2	1	1	114.816	101.316	403.243
783.349	593.651	2	1	1	116.917	101.316	403.243
784.108	593.000	2	1	1	115.833	101.316	403.243
785.108	593.000	2	1	1	112.420	101.316	403.243
786.108	593.000	2	1	1	112.642	101.316	403.243
787.107	592.947	2	1	1	116.482	101.316	403.243
788.001	592.499	2	1	1	112.580	101.316	403.243
788.895	592.052	2	1	1	110.462	101.316	403.243
789.894	592.000	2	1	1	107.876	101.316	403.243
790.894	592.000	2	1	1	110.878	101.316	403.243
791.894	592.000	2	1	1	116.139	101.316	403.243
792.894	592.000	2	1	1	112.471	101.316	403.243
793.894	592.000	2	1	1	118.124	101.316	403.243
794.894	592.000	2	1	1	115.154	101.316	403.243
795.652	591.348	2	1	1	115.524	101.316	403.243
796.590	591.000	2	1	1	113.811	101.316	403.243
797.000	590.088	2	1	1	115.294	101.316	403.243
797.000	589.088	2	1	1	112.778	101.316	403.243
797.000	588.088	2	1	1	115.559	101.316	403.243
797.000	587.088	2	1	1	117.046	101.316	403.243
797.000	586.088	2	1	1	109.600	101.316	403.243
796.338	585.338	2	1	1	111.275	101.316	403.243
795.631	584.631	2	1	1	110.397	101.316	403.243
794.924	583.924	2	1	1	110.071	101.316	403.243
794.217	583.217	2	1	1	111.446	101.316	403.243
793.370	582.685	2	1	1	111.085	101.316	403.243
792.476	582.238	2	1	1	115.359	101.316	403.243
791.660	581.660	2	1	1	113.934	101.316	403.243
790.953	580.953	2	1	1	114.847	101.316	403.243
790.246	580.246	2	1	1	115.092	101.316	403.243
789.538	579.538	2	1	1	116.453	101.316	403.243
788.831	578.831	2	1	1	114.919	101.316	403.243
788.124	578.124	2	1	1	116.032	101.316	403.243
787.256	577.628	2	1	1	116.416	101.316	403.243
786.362	577.181	2	1	1	113.859	101.316	403.243
785.570	576.570	2	1	1	108.965	101.316	403.243
784.863	575.863	2	1	1	114.816	101.316	403.243
784.156	575.156	2	1	1	120.771	101.316	403.243
783.647	574.295	2	1	1	123.427	101.316	403.243
783.200	573.400	2	1	1	116.958	101.316	403.243
782.458	572.729	2	1	1	114.858	101.316	403.243
781.564	572.282	2	1	1	113.521	101.316	403.243
780.730	571.730	2	1	1	116.727	101.316	403.243
780.023	571.023	2	1	1	116.129	101.316	403.243
779.316	570.316	2	1	1	119.344	101.316	403.243
778.609	569.609	2	1	1	120.739	101.316	403.243
777.816	569.000	2	1	1	116.167	101.316	403.243
776.830	568.830	2	1	1	119.307	101.316	403.243
776.123	568.123	2	1	1	112.808	101.316	403.243
775.254	567.627	2	1	1	112.322	101.316	403.243
774.360	567.180	2	1	1	110.511	101.316	403.243
773.569	566.569	2	1	1	113.293	101.316	403.243
772.817	565.909	2	1	1	113.910	101.316	403.243
771.923	565.461	2	1	1	113.189	101.316	403.243
771.029	565.014	2	1	1	115.376	101.316	403.243
770.314	564.314	2	1	1	114.233	101.316	403.243
769.607	563.607	2	1	1	115.209	101.316	403.243
768.900	562.900	2	1	1	116.057	101.316	403.243
768.193	562.193	2	1	1	117.144	101.316	403.243
767.486	561.486	2	1	1	115.032	101.316	403.243
766.612	561.000	2	1	1	114.101	101.316	403.243
765.668	560.668	2	1	1	114.989	101.316	403.243
765.000	559.925	2	1	1	112.963	101.316	403.243
764.619	559.000	2	1	1	110.645	101.316	403.243
764.000	558.215	2	1	1	112.553	101.316	403.243
764.000	557.215	2	1	1	114.742	101.316	403.243
764.000	556.215	2	1	1	111.069	101.316	403.243
764.000	555.215	2	1	1	107.818	101.316	403.243
764.000	554.215	2	1	1	114.451	101.316	403.243
764.000	553.215	2	1	1	117.193	101.316	403.243
764.591	552.409	2	1	1	113.443	101.316	403.243
765.000	551.496	2	1	1	116.299	101.316	403.243
765.000	550.496	2	1	1	118.797	101.316	403.243
765.000	549.496	2	1	1	111.914	101.316	403.243
765.000	548.496	2	1	1	109.932	101.316	403.243
764.132	548.000	2	1	1	113.916	101.316	403.243
764.000	547.009	2	1	1	118.988	101.316	403.243
763.297	546.297	2	1	1	113.207	101.316	403.243
762.470	545.735	2	1	1	113.528	101.316	403.243
761.576	545.288	2	1	1	114.754	101.316	403.243
760.740	544.740	2	1	1	113.710	101.316	403.243
760.032	544.032	2	1	1	114.900	101.316	403.243
759.325	543.325	2	1	1	109.688	101.316	403.243
758.618	542.618	2	1	1	117.276	101.316	403.243
757.832	542.000	2	1	1	117.394	101.316	403.243
757.000	541.446	2	1	1	116.811	101.316	403.243
756.105	541.000	2	1	1	115.478	101.316	403.243
755.105	541.000	2	1	1	109.366	101.316	403.243
754.190	540.595	2	1	1	112.188	101.316	403.243
753.296	540.148	2	1	1	117.047	101.316	403.243
752.401	539.701	2	1	1	117.593	101.316	403.243
751.507	539.254	2	1	1	114.359	101.316	403.243
750.685	538.685	2	1	1	118.285	101.316	403.243
749.978	537.978	2	1	1	111.234	101.316	403.243
749.270	537.270	2	1	1	111.298	101.316	403.243
748.563	536.563	2	1	1	112.094	101.316	403.243
747.810	535.905	2	1	1	112.173	101.316	403.243
746.916	535.458	2	1	1	113.929	101.316	403.243
746.022	535.011	2	1	1	116.263	101.316	403.243
745.309	534.309	2	1	1	115.787	101.316	403.243
744.485	533.743	2	1	1	121.040	101.316	403.243
743.591	533.295	2	1	1	113.776	101.316	403.243
742.635	533.000	2	1	1	114.630	101.316	403.243
742.000	532.228	2	1	1	117.666	101.316	403.243
742.000	531.228	2	1	1	114.875	101.316	403.243
741.026	531.000	2	1	1	114.220	101.316	403.243
741.000	530.000	2	1	1	112.050	101.316	403.243
740.293	529.293	2	1	1	110.140	101.316	403.243
740.000	528.337	2	1	1	109.808	101.316	403.243
740.000	527.337	2	1	1	111.202	101.316	403.243
740.000	526.337	2	1	1	115.717	101.316	403.243
740.000	525.337	2	1	1	115.915	101.316	403.243
740.000	524.337	2	1	1	116.536	101.316	403.243
740.000	523.337	2	1	1	113.597	101.316	403.243
740.000	522.337	2	1	1	110.566	101.316	403.243
740.000	521.337	2	1	1	112.426	101.316	403.243
740.000	520.337	2	1	1	117.423	101.316	403.243
740.000	519.337	2	1	1	116.899	101.316	403.243
740.000	518.337	2	1	1	121.210	101.316	403.243
740.000	517.337	2	1	1	115.338	101.316	403.243
740.000	516.337	2	1	1	111.000	101.316	403.243
740.000	515.337	2	1	1	110.332	101.316	403.243
740.000	514.337	2	1	1	116.921	101.316	403.243
740.000	513.337	2	1	1	117.647	101.316	403.243
740.000	512.337	2	1	1	115.887	101.316	403.243
740.000	511.337	2	1	1	113.893	101.316	403.243
739.482	510.482	2	1	1	109.661	101.316	403.243
739.000	509.605	2	1	1	114.628	101.316	403.243
738.204	509.000	2	1	1	115.325	101.316	403.243
738.000	508.021	2	1	1	115.893	101.316	403.243
737.303	507.303	2	1	1	115.780	101.316	403.243
736.596	506.596	2	1	1	113.697	101.316	403.243
736.000	505.794	2	1	1	114.524	101.316	403.243
735.812	504.812	2	1	1	113.550	101.316	403.243
735.104	504.104	2	1	1	111.481	101.316	403.243
734.397	503.397	2	1	1	112.773	101.316	403.243
733.690	502.690	2	1	1	115.041	101.316	403.243
732.989	501.978	2	1	1	113.778	101.316	403.243
732.542	501.083	2	1	1	113.869	101.316	403.243
732.094	500.189	2	1	1	117.008	101.316	403.243
731.436	499.436	2	1	1	115.532	101.316	403.243
730.729	498.729	2	1	1	109.146	101.316	403.243
730.022	498.022	2	1	1	112.212	101.316	403.243
729.315	497.315	2	1	1	112.439	101.316	403.243
729.000	496.366	2	1	1	113.838	101.316	403.243
728.500	495.500	2	1	1	115.274	101.316	403.243
727.793	494.793	2	1	1	116.008	101.316	403.243
727.085	494.085	2	1	1	113.125	101.316	403.243
726.378	493.378	2	1	1	112.329	101.316	403.243
725.671	492.671	2	1	1	110.363	101.316	403.243
724.964	491.964	2	1	1	110.801	101.316	403.243
724.257	491.257	2	1	1	111.554	101.316	403.243
723.550	490.550	2	1	1	111.104	101.316	403.243
723.000	489.715	2	1	1	114.761	101.316	403.243
722.301	489.000	2	1	1	111.974	101.316	403.243
722.000	488.046	2	1	1	109.003	101.316	403.243
721.125	487.562	2	1	1	113.840	101.316	403.243
720.230	487.115	2	1	1	111.104	101.316	403.243
719.468	486.468	2	1	1	108.790	101.316	403.243
718.761	485.761	2	1	1	108.950	101.316	403.243
718.054	485.054	2	1	1	113.996	101.316	403.243
717.170	484.585	2	1	1	113.258	101.316	403.243
716.276	484.138	2	1	1	115.694	101.316	403.243
715.671	483.342	2	1	1	112.181	101.316	403.243
715.224	482.447	2	1	1	107.549	101.316	403.243
714.637	481.637	2	1	1	105.917	101.316	403.243
714.000	480.867	2	1	1	111.431	101.316	403.243
713.501	480.000	2	1	1	109.797	101.316	403.243
712.501	480.000	2	1	1	113.574	101.316	403.243
712.000	479.135	2	1	1	107.179	101.316	403.243
711.009	479.000	2	1	1	110.404	101.316	403.243
710.297	478.297	2	1	1	109.085	101.316	403.243
709.343	478.000	2	1	1	111.802	101.316	403.243
708.485	477.485	2	1	1	112.756	101.316	403.243
