X	Y	C	Z	T	Intensity	BG	MX
424.000	745.000	2	1	1	108.004	100.737	117.548
424.000	746.000	2	1	1	99.023	100.737	117.548
424.000	747.000	2	1	1	107.936	100.737	117.548
423.293	747.707	2	1	1	107.960	100.737	117.548
422.732	748.535	2	1	1	107.237	100.737	117.548
422.285	749.430	2	1	1	107.523	100.737	117.548
422.000	750.388	2	1	1	107.088	100.737	117.548
421.873	751.380	2	1	1	108.626	100.737	117.548
421.557	752.329	2	1	1	108.168	100.737	117.548
421.241	753.277	2	1	1	106.924	100.737	117.548
421.000	754.248	2	1	1	105.484	100.737	117.548
421.000	755.248	2	1	1	106.282	100.737	117.548
421.000	756.248	2	1	1	103.787	100.737	117.548
421.000	757.248	2	1	1	104.534	100.737	117.548
421.000	758.248	2	1	1	102.540	100.737	117.548
421.000	759.248	2	1	1	106.324	100.737	117.548
420.777	760.223	2	1	1	107.701	100.737	117.548
420.070	760.930	2	1	1	107.874	100.737	117.548
420.000	761.928	2	1	1	105.670	100.737	117.548
420.000	762.928	2	1	1	106.791	100.737	117.548
420.000	763.928	2	1	1	104.669	100.737	117.548
420.000	764.928	2	1	1	108.111	100.737	117.548
420.000	765.928	2	1	1	108.086	100.737	117.548
420.000	766.928	2	1	1	107.130	100.737	117.548
420.000	767.928	2	1	1	112.506	100.737	117.548
420.000	768.928	2	1	1	104.069	100.737	117.548
420.000	769.928	2	1	1	100.064	100.737	117.548
420.000	770.928	2	1	1	100.822	100.737	117.548
420.000	771.928	2	1	1	108.216	100.737	117.548
420.000	772.928	2	1	1	106.450	100.737	117.548
420.000	773.928	2	1	1	106.576	100.737	117.548
420.000	774.928	2	1	1	106.667	100.737	117.548
420.000	775.928	2	1	1	106.379	100.737	117.548
420.000	776.928	2	1	1	106.046	100.737	117.548
420.000	777.928	2	1	1	108.008	100.737	117.548
420.000	778.928	2	1	1	105.467	100.737	117.548
420.000	779.928	2	1	1	105.859	100.737	117.548
420.000	780.928	2	1	1	101.710	100.737	117.548
420.000	781.928	2	1	1	101.571	100.737	117.548
420.000	782.928	2	1	1	105.092	100.737	117.548
420.000	783.928	2	1	1	102.249	100.737	117.548
420.000	784.928	2	1	1	106.232	100.737	117.548
420.000	785.928	2	1	1	110.375	100.737	117.548
419.330	786.670	2	1	1	106.814	100.737	117.548
419.000	787.614	2	1	1	102.190	100.737	117.548
419.000	788.614	2	1	1	103.156	100.737	117.548
419.000	789.614	2	1	1	105.285	100.737	117.548
419.000	790.614	2	1	1	104.194	100.737	117.548
418.078	791.000	2	1	1	104.384	100.737	117.548
418.000	791.997	2	1	1	104.314	100.737	117.548
418.000	792.997	2	1	1	104.171	100.737	117.548
418.000	793.997	2	1	1	108.058	100.737	117.548
418.000	794.997	2	1	1	102.843	100.737	117.548
418.000	795.997	2	1	1	101.709	100.737	117.548
418.000	796.997	2	1	1	103.698	100.737	117.548
418.000	797.997	2	1	1	103.420	100.737	117.548
418.000	798.997	2	1	1	101.886	100.737	117.548
418.000	799.997	2	1	1	108.321	100.737	117.548
418.000	800.997	2	1	1	107.310	100.737	117.548
418.000	801.997	2	1	1	106.995	100.737	117.548
418.000	802.997	2	1	1	105.586	100.737	117.548
418.000	803.997	2	1	1	108.142	100.737	117.548
418.706	804.706	2	1	1	105.685	100.737	117.548
419.000	805.661	2	1	1	107.399	100.737	117.548
419.000	806.661	2	1	1	104.056	100.737	117.548
419.000	807.661	2	1	1	104.360	100.737	117.548
419.000	808.661	2	1	1	106.820	100.737	117.548
419.000	809.661	2	1	1	103.830	100.737	117.548
419.000	810.661	2	1	1	104.854	100.737	117.548
419.517	811.517	2	1	1	109.967	100.737	117.548
420.000	812.393	2	1	1	106.698	100.737	117.548
420.188	813.375	2	1	1	105.278	100.737	117.548
420.635	814.270	2	1	1	104.401	100.737	117.548
421.000	815.201	2	1	1	105.637	100.737	117.548
421.184	816.183	2	1	1	109.603	100.737	117.548
421.891	816.891	2	1	1	106.442	100.737	117.548
422.000	817.885	2	1	1	106.669	100.737	117.548
422.647	818.647	2	1	1	105.884	100.737	117.548
423.000	819.583	2	1	1	106.810	100.737	117.548
423.909	820.000	2	1	1	104.042	100.737	117.548
424.000	820.996	2	1	1	101.614	100.737	117.548
424.000	821.996	2	1	1	104.774	100.737	117.548
424.000	822.996	2	1	1	107.007	100.737	117.548
424.446	823.891	2	1	1	105.630	100.737	117.548
424.893	824.786	2	1	1	103.689	100.737	117.548
425.000	825.780	2	1	1	106.201	100.737	117.548
425.000	826.780	2	1	1	105.110	100.737	117.548
425.000	827.780	2	1	1	103.693	100.737	117.548
425.000	828.780	2	1	1	103.416	100.737	117.548
425.000	829.780	2	1	1	106.428	100.737	117.548
425.000	830.780	2	1	1	105.723	100.737	117.548
425.000	831.780	2	1	1	107.018	100.737	117.548
425.000	832.780	2	1	1	106.878	100.737	117.548
425.000	833.780	2	1	1	105.038	100.737	117.548
425.000	834.780	2	1	1	103.850	100.737	117.548
425.000	835.780	2	1	1	104.146	100.737	117.548
425.000	836.780	2	1	1	105.140	100.737	117.548
425.000	837.780	2	1	1	104.055	100.737	117.548
425.000	838.780	2	1	1	104.291	100.737	117.548
425.588	839.588	2	1	1	107.594	100.737	117.548
426.000	840.500	2	1	1	103.709	100.737	117.548
426.000	841.500	2	1	1	101.568	100.737	117.548
426.000	842.500	2	1	1	102.942	100.737	117.548
426.000	843.500	2	1	1	104.506	100.737	117.548
426.000	844.500	2	1	1	104.761	100.737	117.548
426.000	845.500	2	1	1	105.539	100.737	117.548
426.411	846.411	2	1	1	101.662	100.737	117.548
427.000	847.220	2	1	1	105.563	100.737	117.548
427.000	848.220	2	1	1	105.821	100.737	117.548
427.000	849.220	2	1	1	105.465	100.737	117.548
427.000	850.220	2	1	1	111.323	100.737	117.548
427.199	851.199	2	1	1	105.406	100.737	117.548
427.907	851.907	2	1	1	106.992	100.737	117.548
428.000	852.902	2	1	1	102.823	100.737	117.548
428.000	853.902	2	1	1	102.221	100.737	117.548
428.656	854.656	2	1	1	103.326	100.737	117.548
429.000	855.596	2	1	1	106.274	100.737	117.548
429.475	856.475	2	1	1	102.871	100.737	117.548
430.000	857.327	2	1	1	104.351	100.737	117.548
430.000	858.327	2	1	1	104.966	100.737	117.548
430.000	859.327	2	1	1	110.884	100.737	117.548
430.285	860.285	2	1	1	104.809	100.737	117.548
430.992	860.992	2	1	1	102.788	100.737	117.548
431.000	861.992	2	1	1	101.073	100.737	117.548
431.000	862.992	2	1	1	100.671	100.737	117.548
431.000	863.992	2	1	1	98.719	100.737	117.548
431.444	864.888	2	1	1	100.197	100.737	117.548
431.891	865.783	2	1	1	103.088	100.737	117.548
432.339	866.677	2	1	1	101.145	100.737	117.548
432.786	867.572	2	1	1	104.667	100.737	117.548
433.233	868.466	2	1	1	105.820	100.737	117.548
433.680	869.360	2	1	1	102.479	100.737	117.548
434.209	870.209	2	1	1	104.385	100.737	117.548
434.916	870.916	2	1	1	100.582	100.737	117.548
435.000	871.913	2	1	1	104.057	100.737	117.548
435.000	872.913	2	1	1	104.036	100.737	117.548
435.996	873.000	2	1	1	103.120	100.737	117.548
436.000	874.000	2	1	1	106.412	100.737	117.548
436.000	875.000	2	1	1	105.669	100.737	117.548
436.447	875.894	2	1	1	107.759	100.737	117.548
436.894	876.789	2	1	1	107.240	100.737	117.548
437.547	877.547	2	1	1	103.295	100.737	117.548
438.000	878.438	2	1	1	104.571	100.737	117.548
438.208	879.416	2	1	1	106.274	100.737	117.548
438.655	880.311	2	1	1	105.853	100.737	117.548
439.103	881.205	2	1	1	105.563	100.737	117.548
439.550	882.100	2	1	1	102.745	100.737	117.548
439.997	882.994	2	1	1	104.694	100.737	117.548
440.703	883.703	2	1	1	107.150	100.737	117.548
441.265	884.530	2	1	1	102.950	100.737	117.548
441.712	885.424	2	1	1	103.895	100.737	117.548
442.260	886.260	2	1	1	103.272	100.737	117.548
442.967	886.967	2	1	1	104.749	100.737	117.548
443.000	887.967	2	1	1	102.235	100.737	117.548
443.690	888.690	2	1	1	103.979	100.737	117.548
444.397	889.397	2	1	1	104.463	100.737	117.548
445.000	890.196	2	1	1	102.144	100.737	117.548
445.179	891.179	2	1	1	102.402	100.737	117.548
445.886	891.886	2	1	1	103.597	100.737	117.548
446.379	892.757	2	1	1	104.575	100.737	117.548
446.826	893.651	2	1	1	103.967	100.737	117.548
447.000	894.636	2	1	1	102.811	100.737	117.548
447.296	895.591	2	1	1	107.671	100.737	117.548
447.743	896.486	2	1	1	104.534	100.737	117.548
448.190	897.380	2	1	1	103.235	100.737	117.548
448.637	898.275	2	1	1	104.869	100.737	117.548
449.000	899.207	2	1	1	104.863	100.737	117.548
449.000	900.207	2	1	1	103.363	100.737	117.548
449.189	901.189	2	1	1	103.733	100.737	117.548
449.896	901.896	2	1	1	105.266	100.737	117.548
450.000	902.890	2	1	1	103.942	100.737	117.548
450.000	903.890	2	1	1	102.362	100.737	117.548
450.000	904.890	2	1	1	99.826	100.737	117.548
450.000	905.890	2	1	1	101.527	100.737	117.548
450.000	906.890	2	1	1	102.557	100.737	117.548
450.403	907.806	2	1	1	104.552	100.737	117.548
450.850	908.700	2	1	1	104.306	100.737	117.548
451.000	909.689	2	1	1	98.910	100.737	117.548
451.000	910.689	2	1	1	102.460	100.737	117.548
451.534	911.534	2	1	1	103.345	100.737	117.548
452.158	912.316	2	1	1	106.221	100.737	117.548
452.605	913.210	2	1	1	102.807	100.737	117.548
453.000	914.129	2	1	1	105.418	100.737	117.548
453.000	915.129	2	1	1	101.254	100.737	117.548
453.121	916.121	2	1	1	102.917	100.737	117.548
453.829	916.829	2	1	1	104.169	100.737	117.548
454.000	917.814	2	1	1	105.863	100.737	117.548
454.000	918.814	2	1	1	103.758	100.737	117.548
454.000	919.814	2	1	1	100.670	100.737	117.548
454.000	920.814	2	1	1	103.839	100.737	117.548
454.608	921.608	2	1	1	106.546	100.737	117.548
455.000	922.528	2	1	1	106.480	100.737	117.548
455.000	923.528	2	1	1	104.380	100.737	117.548
455.000	924.528	2	1	1	102.133	100.737	117.548
455.000	925.528	2	1	1	98.553	100.737	117.548
455.430	926.430	2	1	1	104.815	100.737	117.548
456.137	927.138	2	1	1	106.493	100.737	117.548
456.845	927.845	2	1	1	104.021	100.737	117.548
457.000	928.832	2	1	1	102.607	100.737	117.548
457.618	929.618	2	1	1	106.931	100.737	117.548
458.325	930.325	2	1	1	110.059	100.737	117.548
459.064	931.000	2	1	1	106.258	100.737	117.548
460.062	931.062	2	1	1	105.862	100.737	117.548
460.769	931.769	2	1	1	104.314	100.737	117.548
461.476	932.476	2	1	1	103.701	100.737	117.548
462.328	933.000	2	1	1	107.370	100.737	117.548
463.000	933.740	2	1	1	104.230	100.737	117.548
463.565	934.565	2	1	1	102.847	100.737	117.548
464.272	935.272	2	1	1	105.664	100.737	117.548
464.979	935.979	2	1	1	107.126	100.737	117.548
465.687	936.687	2	1	1	104.581	100.737	117.548
466.255	937.509	2	1	1	105.355	100.737	117.548
466.702	938.404	2	1	1	105.494	100.737	117.548
467.244	939.244	2	1	1	100.970	100.737	117.548
467.951	939.951	2	1	1	104.646	100.737	117.548
468.418	940.836	2	1	1	103.400	100.737	117.548
468.865	941.730	2	1	1	99.587	100.737	117.548
469.501	942.501	2	1	1	104.095	100.737	117.548
470.209	943.209	2	1	1	104.532	100.737	117.548
470.916	943.916	2	1	1	105.245	100.737	117.548
471.396	944.793	2	1	1	106.465	100.737	117.548
471.844	945.687	2	1	1	105.546	100.737	117.548
472.468	946.468	2	1	1	106.025	100.737	117.548
473.115	947.230	2	1	1	109.494	100.737	117.548
473.562	948.125	2	1	1	107.294	100.737	117.548
474.010	949.019	2	1	1	104.451	100.737	117.548
474.457	949.914	2	1	1	104.148	100.737	117.548
474.904	950.808	2	1	1	105.349	100.737	117.548
475.351	951.703	2	1	1	107.140	100.737	117.548
475.798	952.597	2	1	1	103.032	100.737	117.548
476.398	953.398	2	1	1	104.104	100.737	117.548
477.069	954.138	2	1	1	105.480	100.737	117.548
477.516	955.033	2	1	1	107.339	100.737	117.548
477.964	955.927	2	1	1	109.017	100.737	117.548
478.000	956.927	2	1	1	106.184	100.737	117.548
478.669	957.669	2	1	1	100.690	100.737	117.548
479.377	958.377	2	1	1	101.529	100.737	117.548
480.000	959.159	2	1	1	104.402	100.737	117.548
480.078	960.156	2	1	1	105.711	100.737	117.548
480.525	961.050	2	1	1	105.059	100.737	117.548
480.972	961.944	2	1	1	104.597	100.737	117.548
481.665	962.665	2	1	1	103.527	100.737	117.548
482.372	963.372	2	1	1	108.072	100.737	117.548
483.000	964.151	2	1	1	103.930	100.737	117.548
483.141	965.141	2	1	1	103.704	100.737	117.548
483.848	965.848	2	1	1	104.983	100.737	117.548
484.355	966.710	2	1	1	107.276	100.737	117.548
484.802	967.604	2	1	1	105.115	100.737	117.548
485.403	968.403	2	1	1	101.002	100.737	117.548
486.111	969.111	2	1	1	107.422	100.737	117.548
486.818	969.818	2	1	1	102.094	100.737	117.548
487.525	970.525	2	1	1	103.864	100.737	117.548
488.152	971.304	2	1	1	104.530	100.737	117.548
488.599	972.198	2	1	1	104.632	100.737	117.548
489.197	973.000	2	1	1	103.614	100.737	117.548
490.150	973.301	2	1	1	105.038	100.737	117.548
490.598	974.195	2	1	1	103.351	100.737	117.548
491.191	975.000	2	1	1	98.931	100.737	117.548
492.000	975.587	2	1	1	101.731	100.737	117.548
492.000	976.587	2	1	1	106.190	100.737	117.548
492.470	977.470	2	1	1	108.008	100.737	117.548
493.000	978.318	2	1	1	107.095	100.737	117.548
493.279	979.279	2	1	1	101.602	100.737	117.548
493.986	979.986	2	1	1	104.641	100.737	117.548
494.000	980.986	2	1	1	104.955	100.737	117.548
494.000	981.986	2	1	1	102.166	100.737	117.548
494.700	982.700	2	1	1	104.592	100.737	117.548
495.407	983.407	2	1	1	103.269	100.737	117.548
496.075	984.151	2	1	1	104.172	100.737	117.548
496.523	985.045	2	1	1	106.168	100.737	117.548
496.970	985.940	2	1	1	106.402	100.737	117.548
497.662	986.662	2	1	1	102.307	100.737	117.548
498.239	987.478	2	1	1	101.816	100.737	117.548
498.686	988.373	2	1	1	102.482	100.737	117.548
499.219	989.219	2	1	1	105.624	100.737	117.548
499.926	989.926	2	1	1	107.591	100.737	117.548
500.633	990.633	2	1	1	107.419	100.737	117.548
501.340	991.340	2	1	1	107.078	100.737	117.548
502.047	992.047	2	1	1	104.726	100.737	117.548
502.754	992.754	2	1	1	102.840	100.737	117.548
503.297	993.594	2	1	1	104.880	100.737	117.548
503.744	994.489	2	1	1	103.385	100.737	117.548
504.312	995.312	2	1	1	99.538	100.737	117.548
505.019	996.019	2	1	1	102.233	100.737	117.548
505.726	996.726	2	1	1	100.417	100.737	117.548
506.433	997.433	2	1	1	102.962	100.737	117.548
507.093	998.185	2	1	1	102.128	100.737	117.548
507.540	999.080	2	1	1	102.876	100.737	117.548
507.987	999.974	2	1	1	103.360	100.737	117.548
508.688	1000.688	2	1	1	105.644	100.737	117.548
509.395	1001.395	2	1	1	108.143	100.737	117.548
510.067	1002.135	2	1	1	104.236	100.737	117.548
510.515	1003.029	2	1	1	106.539	100.737	117.548
510.962	1003.924	2	1	1	102.857	100.737	117.548
511.650	1004.650	2	1	1	103.200	100.737	117.548
512.357	1005.357	2	1	1	106.509	100.737	117.548
513.064	1006.064	2	1	1	105.534	100.737	117.548
513.771	1006.771	2	1	1	102.363	100.737	117.548
514.478	1007.478	2	1	1	106.479	100.737	117.548
515.122	1008.243	2	1	1	103.354	100.737	117.548
515.569	1009.138	2	1	1	104.177	100.737	117.548
516.040	1010.020	2	1	1	105.101	100.737	117.548
516.934	1010.467	2	1	1	105.079	100.737	117.548
517.829	1010.914	2	1	1	105.018	100.737	117.548
518.674	1011.449	2	1	1	105.782	100.737	117.548
519.506	1012.004	2	1	1	102.302	100.737	117.548
520.338	1012.558	2	1	1	102.264	100.737	117.548
521.147	1013.147	2	1	1	104.382	100.737	117.548
521.854	1013.854	2	1	1	102.288	100.737	117.548
522.561	1014.561	2	1	1	99.384	100.737	117.548
523.350	1015.175	2	1	1	100.661	100.737	117.548
524.244	1015.622	2	1	1	106.331	100.737	117.548
525.115	1016.115	2	1	1	104.074	100.737	117.548
525.822	1016.822	2	1	1	107.014	100.737	117.548
526.529	1017.529	2	1	1	107.474	100.737	117.548
527.236	1018.236	2	1	1	101.104	100.737	117.548
527.943	1018.943	2	1	1	102.584	100.737	117.548
528.650	1019.650	2	1	1	101.020	100.737	117.548
529.357	1020.357	2	1	1	106.797	100.737	117.548
530.064	1021.064	2	1	1	103.561	100.737	117.548
530.771	1021.771	2	1	1	104.169	100.737	117.548
531.479	1022.479	2	1	1	103.313	100.737	117.548
532.244	1023.122	2	1	1	101.619	100.737	117.548
533.139	1023.569	2	1	1	102.752	100.737	117.548
534.027	1024.027	2	1	1	104.197	100.737	117.548
534.734	1024.734	2	1	1	103.082	100.737	117.548
535.442	1025.442	2	1	1	101.208	100.737	117.548
536.149	1026.149	2	1	1	102.769	100.737	117.548
536.856	1026.856	2	1	1	103.245	100.737	117.548
537.845	1027.000	2	1	1	104.683	100.737	117.548
538.626	1027.626	2	1	1	105.552	100.737	117.548
539.333	1028.333	2	1	1	104.481	100.737	117.548
540.040	1029.040	2	1	1	103.458	100.737	117.548
540.747	1029.747	2	1	1	104.665	100.737	117.548
541.454	1030.454	2	1	1	104.144	100.737	117.548
542.161	1031.161	2	1	1	106.613	100.737	117.548
542.868	1031.868	2	1	1	102.037	100.737	117.548
543.575	1032.575	2	1	1	100.549	100.737	117.548
544.481	1033.000	2	1	1	102.625	100.737	117.548
545.398	1033.398	2	1	1	104.218	100.737	117.548
546.000	1034.197	2	1	1	106.173	100.737	117.548
546.595	1035.000	2	1	1	104.698	100.737	117.548
547.475	1035.475	2	1	1	105.553	100.737	117.548
548.182	1036.182	2	1	1	102.948	100.737	117.548
548.889	1036.889	2	1	1	101.357	100.737	117.548
549.597	1037.597	2	1	1	105.926	100.737	117.548
550.304	1038.304	2	1	1	106.439	100.737	117.548
551.011	1039.011	2	1	1	102.944	100.737	117.548
551.718	1039.718	2	1	1	104.283	100.737	117.548
552.425	1040.425	2	1	1	102.899	100.737	117.548
553.132	1041.132	2	1	1	105.906	100.737	117.548
553.839	1041.839	2	1	1	103.984	100.737	117.548
554.546	1042.546	2	1	1	102.736	100.737	117.548
555.331	1043.166	2	1	1	102.543	100.737	117.548
556.226	1043.613	2	1	1	102.586	100.737	117.548
557.099	1044.099	2	1	1	102.748	100.737	117.548
557.807	1044.807	2	1	1	102.844	100.737	117.548
558.514	1045.514	2	1	1	102.734	100.737	117.548
559.221	1046.221	2	1	1	105.338	100.737	117.548
559.928	1046.928	2	1	1	102.756	100.737	117.548
560.000	1047.925	2	1	1	105.585	100.737	117.548
560.669	1048.669	2	1	1	105.769	100.737	117.548
561.000	1049.612	2	1	1	108.501	100.737	117.548
561.922	1050.000	2	1	1	108.309	100.737	117.548
562.000	1050.997	2	1	1	107.088	100.737	117.548
562.000	1051.997	2	1	1	99.532	100.737	117.548
562.706	1052.706	2	1	1	103.158	100.737	117.548
563.661	1053.000	2	1	1	106.378	100.737	117.548
564.000	1053.941	2	1	1	105.570	100.737	117.548
564.677	1054.677	2	1	1	105.311	100.737	117.548
565.384	1055.384	2	1	1	107.482	100.737	117.548
566.091	1056.091	2	1	1	106.026	100.737	117.548
566.798	1056.798	2	1	1	105.470	100.737	117.548
567.000	1057.778	2	1	1	104.314	100.737	117.548
567.975	1058.000	2	1	1	104.812	100.737	117.548
568.000	1059.000	2	1	1	106.829	100.737	117.548
569.000	1059.000	2	1	1	104.341	100.737	117.548
569.000	1060.000	2	1	1	109.096	100.737	117.548
570.000	1060.000	2	1	1	106.000	100.737	117.548
570.000	1061.000	2	1	1	106.568	100.737	117.548
570.000	1062.000	2	1	1	106.100	100.737	117.548
569.000	1062.000	2	1	1	105.721	100.737	117.548
568.000	1062.000	2	1	1	102.440	100.737	117.548
					110.990		
