X	Y	C	Z	T	Intensity	BG	MX
922.000	515.000	3	1	1	207.795	104.319	130.833
921.000	515.000	3	1	1	194.543	104.319	130.833
921.000	516.000	3	1	1	199.592	104.319	130.833
920.000	516.000	3	1	1	203.283	104.319	130.833
919.293	516.707	3	1	1	197.148	104.319	130.833
919.000	517.663	3	1	1	194.786	104.319	130.833
918.058	518.000	3	1	1	179.204	104.319	130.833
917.323	518.677	3	1	1	189.085	104.319	130.833
917.000	519.624	3	1	1	196.104	104.319	130.833
916.073	520.000	3	1	1	190.303	104.319	130.833
916.000	520.997	3	1	1	189.806	104.319	130.833
915.000	521.000	3	1	1	192.520	104.319	130.833
914.293	521.707	3	1	1	190.335	104.319	130.833
913.586	522.414	3	1	1	194.471	104.319	130.833
912.879	523.121	3	1	1	197.274	104.319	130.833
912.172	523.828	3	1	1	193.127	104.319	130.833
911.464	524.536	3	1	1	191.205	104.319	130.833
911.000	525.421	3	1	1	189.980	104.319	130.833
910.185	526.000	3	1	1	199.255	104.319	130.833
909.391	526.609	3	1	1	214.887	104.319	130.833
908.471	527.000	3	1	1	213.889	104.319	130.833
908.000	527.882	3	1	1	214.367	104.319	130.833
907.007	528.000	3	1	1	218.763	104.319	130.833
907.000	529.000	3	1	1	223.930	104.319	130.833
906.000	529.000	3	1	1	232.794	104.319	130.833
906.000	530.000	3	1	1	242.840	104.319	130.833
905.000	530.000	3	1	1	231.540	104.319	130.833
904.293	530.707	3	1	1	232.775	104.319	130.833
903.586	531.414	3	1	1	234.459	104.319	130.833
902.879	532.121	3	1	1	232.064	104.319	130.833
902.172	532.828	3	1	1	237.820	104.319	130.833
901.186	533.000	3	1	1	226.141	104.319	130.833
901.000	533.982	3	1	1	209.304	104.319	130.833
900.302	534.698	3	1	1	213.377	104.319	130.833
900.000	535.652	3	1	1	224.617	104.319	130.833
899.489	536.511	3	1	1	228.857	104.319	130.833
898.782	537.218	3	1	1	226.244	104.319	130.833
898.075	537.925	3	1	1	228.717	104.319	130.833
897.367	538.633	3	1	1	214.927	104.319	130.833
896.660	539.340	3	1	1	217.348	104.319	130.833
895.969	540.062	3	1	1	222.095	104.319	130.833
895.522	540.956	3	1	1	226.197	104.319	130.833
895.075	541.851	3	1	1	224.017	104.319	130.833
894.406	542.594	3	1	1	231.954	104.319	130.833
893.699	543.301	3	1	1	231.765	104.319	130.833
893.000	544.017	3	1	1	227.753	104.319	130.833
892.983	545.017	3	1	1	220.153	104.319	130.833
892.276	545.724	3	1	1	218.723	104.319	130.833
891.569	546.431	3	1	1	206.552	104.319	130.833
891.000	547.253	3	1	1	190.797	104.319	130.833
890.335	548.000	3	1	1	184.509	104.319	130.833
890.000	548.942	3	1	1	190.215	104.319	130.833
889.002	549.000	3	1	1	215.826	104.319	130.833
888.294	549.706	3	1	1	213.215	104.319	130.833
888.000	550.662	3	1	1	219.913	104.319	130.833
887.482	551.518	3	1	1	224.247	104.319	130.833
886.775	552.225	3	1	1	231.221	104.319	130.833
886.068	552.932	3	1	1	240.959	104.319	130.833
885.361	553.639	3	1	1	256.192	104.319	130.833
884.428	554.000	3	1	1	266.592	104.319	130.833
884.000	554.904	3	1	1	259.370	104.319	130.833
883.005	555.000	3	1	1	258.378	104.319	130.833
883.000	556.000	3	1	1	264.074	104.319	130.833
882.000	556.000	3	1	1	278.394	104.319	130.833
881.293	556.707	3	1	1	283.086	104.319	130.833
880.586	557.414	3	1	1	285.577	104.319	130.833
879.879	558.121	3	1	1	275.194	104.319	130.833
879.172	558.828	3	1	1	267.546	104.319	130.833
878.186	559.000	3	1	1	287.504	104.319	130.833
877.392	559.608	3	1	1	288.267	104.319	130.833
876.685	560.315	3	1	1	275.156	104.319	130.833
875.957	561.000	3	1	1	256.162	104.319	130.833
875.000	561.291	3	1	1	237.469	104.319	130.833
874.295	562.000	3	1	1	230.021	104.319	130.833
874.000	562.956	3	1	1	224.332	104.319	130.833
873.001	563.000	3	1	1	240.486	104.319	130.833
872.293	563.707	3	1	1	247.094	104.319	130.833
872.000	564.663	3	1	1	247.253	104.319	130.833
871.059	565.000	3	1	1	239.681	104.319	130.833
870.059	565.000	3	1	1	241.614	104.319	130.833
870.000	565.998	3	1	1	231.021	104.319	130.833
869.000	566.000	3	1	1	229.432	104.319	130.833
869.000	567.000	3	1	1	247.280	104.319	130.833
868.293	567.707	3	1	1	240.613	104.319	130.833
867.337	568.000	3	1	1	257.117	104.319	130.833
867.000	568.942	3	1	1	262.986	104.319	130.833
866.323	569.677	3	1	1	251.232	104.319	130.833
865.616	570.384	3	1	1	236.073	104.319	130.833
865.000	571.172	3	1	1	251.490	104.319	130.833
864.439	572.000	3	1	1	270.917	104.319	130.833
864.000	572.899	3	1	1	278.357	104.319	130.833
863.005	573.000	3	1	1	280.171	104.319	130.833
863.000	574.000	3	1	1	290.553	104.319	130.833
862.293	574.707	3	1	1	270.340	104.319	130.833
861.586	575.414	3	1	1	254.942	104.319	130.833
860.879	576.121	3	1	1	241.146	104.319	130.833
860.172	576.828	3	1	1	225.714	104.319	130.833
860.000	577.814	3	1	1	223.544	104.319	130.833
859.018	578.000	3	1	1	221.735	104.319	130.833
858.302	578.698	3	1	1	205.298	104.319	130.833
858.000	579.652	3	1	1	200.763	104.319	130.833
857.063	580.000	3	1	1	210.544	104.319	130.833
856.325	580.675	3	1	1	217.965	104.319	130.833
856.000	581.621	3	1	1	227.091	104.319	130.833
855.075	582.000	3	1	1	211.571	104.319	130.833
855.000	582.997	3	1	1	210.299	104.319	130.833
854.294	583.706	3	1	1	219.528	104.319	130.833
853.587	584.413	3	1	1	228.084	104.319	130.833
852.880	585.120	3	1	1	216.789	104.319	130.833
852.173	585.827	3	1	1	215.914	104.319	130.833
851.466	586.534	3	1	1	230.212	104.319	130.833
850.759	587.241	3	1	1	226.262	104.319	130.833
850.052	587.948	3	1	1	244.703	104.319	130.833
849.345	588.655	3	1	1	262.388	104.319	130.833
848.765	589.470	3	1	1	261.085	104.319	130.833
848.318	590.365	3	1	1	262.173	104.319	130.833
847.787	591.213	3	1	1	261.722	104.319	130.833
847.080	591.920	3	1	1	269.134	104.319	130.833
846.601	592.797	3	1	1	270.696	104.319	130.833
846.154	593.692	3	1	1	264.065	104.319	130.833
845.528	594.472	3	1	1	264.797	104.319	130.833
844.821	595.179	3	1	1	253.848	104.319	130.833
844.114	595.886	3	1	1	251.349	104.319	130.833
843.407	596.593	3	1	1	238.580	104.319	130.833
843.000	597.507	3	1	1	220.859	104.319	130.833
842.584	598.416	3	1	1	236.562	104.319	130.833
841.772	599.000	3	1	1	245.294	104.319	130.833
841.000	599.635	3	1	1	256.477	104.319	130.833
840.499	600.501	3	1	1	253.626	104.319	130.833
839.792	601.208	3	1	1	272.566	104.319	130.833
839.085	601.915	3	1	1	271.344	104.319	130.833
838.378	602.622	3	1	1	264.461	104.319	130.833
838.000	603.548	3	1	1	270.388	104.319	130.833
837.108	604.000	3	1	1	305.521	104.319	130.833
837.000	604.994	3	1	1	296.437	104.319	130.833
836.296	605.704	3	1	1	300.199	104.319	130.833
835.341	606.000	3	1	1	317.634	104.319	130.833
835.000	606.940	3	1	1	294.121	104.319	130.833
835.998	607.000	3	1	1	305.057	104.319	130.833
836.998	607.000	3	1	1	296.045	104.319	130.833
