X	Y	C	Z	T	Intensity	BG	MX
135.750	111.500	3	1	1	160.329	104.334	352.070
134.850	111.937	3	1	1	160.975	104.334	352.070
133.951	112.374	3	1	1	161.579	104.334	352.070
133.051	112.811	3	1	1	157.353	104.334	352.070
132.152	113.248	3	1	1	154.351	104.334	352.070
131.252	113.685	3	1	1	164.663	104.334	352.070
130.353	114.121	3	1	1	163.037	104.334	352.070
129.453	114.558	3	1	1	161.527	104.334	352.070
128.554	114.995	3	1	1	159.123	104.334	352.070
127.654	115.432	3	1	1	161.803	104.334	352.070
126.801	115.953	3	1	1	167.185	104.334	352.070
126.100	116.667	3	1	1	165.136	104.334	352.070
125.400	117.380	3	1	1	152.576	104.334	352.070
124.699	118.094	3	1	1	161.414	104.334	352.070
123.999	118.808	3	1	1	161.235	104.334	352.070
123.298	119.521	3	1	1	158.022	104.334	352.070
122.598	120.235	3	1	1	162.410	104.334	352.070
121.897	120.949	3	1	1	166.043	104.334	352.070
121.197	121.662	3	1	1	163.729	104.334	352.070
120.497	122.376	3	1	1	153.420	104.334	352.070
119.796	123.090	3	1	1	152.348	104.334	352.070
119.096	123.804	3	1	1	155.482	104.334	352.070
118.395	124.517	3	1	1	165.669	104.334	352.070
117.695	125.231	3	1	1	163.426	104.334	352.070
116.994	125.945	3	1	1	156.142	104.334	352.070
116.294	126.658	3	1	1	159.507	104.334	352.070
115.593	127.372	3	1	1	158.136	104.334	352.070
114.893	128.086	3	1	1	157.019	104.334	352.070
114.192	128.799	3	1	1	157.341	104.334	352.070
113.548	129.564	3	1	1	160.115	104.334	352.070
113.008	130.406	3	1	1	152.536	104.334	352.070
112.468	131.248	3	1	1	155.370	104.334	352.070
111.928	132.089	3	1	1	155.646	104.334	352.070
111.388	132.931	3	1	1	153.170	104.334	352.070
110.848	133.773	3	1	1	155.345	104.334	352.070
110.308	134.614	3	1	1	154.130	104.334	352.070
109.768	135.456	3	1	1	154.948	104.334	352.070
109.228	136.298	3	1	1	147.593	104.334	352.070
108.688	137.139	3	1	1	160.178	104.334	352.070
108.148	137.981	3	1	1	154.480	104.334	352.070
107.608	138.822	3	1	1	155.671	104.334	352.070
107.068	139.664	3	1	1	157.354	104.334	352.070
106.528	140.506	3	1	1	158.127	104.334	352.070
105.988	141.347	3	1	1	151.309	104.334	352.070
105.448	142.189	3	1	1	157.275	104.334	352.070
104.908	143.031	3	1	1	151.582	104.334	352.070
104.381	143.880	3	1	1	153.201	104.334	352.070
103.893	144.753	3	1	1	149.351	104.334	352.070
103.406	145.627	3	1	1	148.851	104.334	352.070
102.918	146.500	3	1	1	138.020	104.334	352.070
102.430	147.373	3	1	1	146.415	104.334	352.070
101.943	148.246	3	1	1	144.527	104.334	352.070
101.455	149.119	3	1	1	153.039	104.334	352.070
100.968	149.992	3	1	1	149.660	104.334	352.070
100.480	150.865	3	1	1	139.608	104.334	352.070
99.993	151.738	3	1	1	143.949	104.334	352.070
99.505	152.611	3	1	1	147.753	104.334	352.070
99.017	153.484	3	1	1	143.282	104.334	352.070
98.530	154.357	3	1	1	144.480	104.334	352.070
98.042	155.230	3	1	1	142.409	104.334	352.070
97.555	156.104	3	1	1	141.757	104.334	352.070
97.087	156.987	3	1	1	138.031	104.334	352.070
96.635	157.879	3	1	1	143.356	104.334	352.070
96.183	158.771	3	1	1	142.123	104.334	352.070
95.731	159.664	3	1	1	143.250	104.334	352.070
95.279	160.556	3	1	1	143.682	104.334	352.070
94.827	161.448	3	1	1	133.816	104.334	352.070
94.376	162.340	3	1	1	134.725	104.334	352.070
93.924	163.232	3	1	1	143.609	104.334	352.070
93.472	164.124	3	1	1	133.437	104.334	352.070
93.020	165.016	3	1	1	135.398	104.334	352.070
92.568	165.908	3	1	1	135.918	104.334	352.070
92.116	166.800	3	1	1	135.007	104.334	352.070
91.664	167.692	3	1	1	131.189	104.334	352.070
91.213	168.585	3	1	1	130.735	104.334	352.070
90.792	169.492	3	1	1	127.579	104.334	352.070
90.537	170.459	3	1	1	132.949	104.334	352.070
90.282	171.426	3	1	1	131.501	104.334	352.070
90.027	172.393	3	1	1	127.474	104.334	352.070
89.772	173.360	3	1	1	133.452	104.334	352.070
89.518	174.327	3	1	1	133.394	104.334	352.070
89.263	175.294	3	1	1	129.008	104.334	352.070
89.008	176.260	3	1	1	119.048	104.334	352.070
88.753	177.227	3	1	1	127.762	104.334	352.070
88.498	178.194	3	1	1	128.482	104.334	352.070
88.243	179.161	3	1	1	127.810	104.334	352.070
87.989	180.128	3	1	1	127.151	104.334	352.070
87.734	181.095	3	1	1	132.275	104.334	352.070
87.479	182.062	3	1	1	135.404	104.334	352.070
87.224	183.029	3	1	1	124.436	104.334	352.070
86.969	183.996	3	1	1	116.179	104.334	352.070
86.715	184.963	3	1	1	125.170	104.334	352.070
86.460	185.930	3	1	1	125.146	104.334	352.070
86.205	186.897	3	1	1	122.745	104.334	352.070
85.950	187.864	3	1	1	120.655	104.334	352.070
85.695	188.831	3	1	1	127.537	104.334	352.070
85.441	189.798	3	1	1	124.009	104.334	352.070
85.186	190.765	3	1	1	123.784	104.334	352.070
84.931	191.732	3	1	1	120.434	104.334	352.070
84.676	192.699	3	1	1	117.180	104.334	352.070
84.421	193.666	3	1	1	117.486	104.334	352.070
84.372	194.665	3	1	1	118.858	104.334	352.070
84.430	195.663	3	1	1	118.056	104.334	352.070
84.488	196.662	3	1	1	117.023	104.334	352.070
84.546	197.660	3	1	1	114.226	104.334	352.070
84.603	198.658	3	1	1	119.839	104.334	352.070
84.661	199.657	3	1	1	121.706	104.334	352.070
84.719	200.655	3	1	1	115.095	104.334	352.070
84.777	201.653	3	1	1	118.761	104.334	352.070
84.835	202.652	3	1	1	121.285	104.334	352.070
84.893	203.650	3	1	1	117.068	104.334	352.070
84.951	204.648	3	1	1	116.351	104.334	352.070
85.028	205.645	3	1	1	115.426	104.334	352.070
85.220	206.627	3	1	1	116.853	104.334	352.070
85.412	207.608	3	1	1	112.142	104.334	352.070
85.604	208.589	3	1	1	113.187	104.334	352.070
85.796	209.571	3	1	1	113.401	104.334	352.070
85.988	210.552	3	1	1	119.106	104.334	352.070
86.180	211.534	3	1	1	116.978	104.334	352.070
86.373	212.515	3	1	1	114.817	104.334	352.070
86.565	213.496	3	1	1	117.948	104.334	352.070
86.757	214.478	3	1	1	113.287	104.334	352.070
86.949	215.459	3	1	1	109.881	104.334	352.070
87.141	216.441	3	1	1	110.572	104.334	352.070
87.344	217.420	3	1	1	115.515	104.334	352.070
87.563	218.395	3	1	1	113.359	104.334	352.070
87.782	219.371	3	1	1	116.532	104.334	352.070
88.001	220.347	3	1	1	116.047	104.334	352.070
88.220	221.323	3	1	1	114.525	104.334	352.070
88.439	222.298	3	1	1	112.692	104.334	352.070
88.658	223.274	3	1	1	118.735	104.334	352.070
88.877	224.250	3	1	1	115.613	104.334	352.070
89.097	225.225	3	1	1	116.560	104.334	352.070
89.316	226.201	3	1	1	115.710	104.334	352.070
89.535	227.177	3	1	1	109.069	104.334	352.070
89.754	228.153	3	1	1	109.085	104.334	352.070
89.973	229.128	3	1	1	112.852	104.334	352.070
90.283	230.079	3	1	1	110.956	104.334	352.070
90.605	231.026	3	1	1	105.554	104.334	352.070
90.928	231.972	3	1	1	106.970	104.334	352.070
91.251	232.919	3	1	1	111.607	104.334	352.070
91.573	233.865	3	1	1	112.962	104.334	352.070
91.896	234.812	3	1	1	115.381	104.334	352.070
92.219	235.758	3	1	1	110.517	104.334	352.070
92.541	236.705	3	1	1	116.757	104.334	352.070
92.864	237.651	3	1	1	111.677	104.334	352.070
93.187	238.598	3	1	1	108.882	104.334	352.070
93.509	239.544	3	1	1	108.199	104.334	352.070
93.829	240.492	3	1	1	108.740	104.334	352.070
94.141	241.442	3	1	1	111.415	104.334	352.070
94.453	242.392	3	1	1	109.125	104.334	352.070
94.766	243.342	3	1	1	106.862	104.334	352.070
95.078	244.292	3	1	1	110.632	104.334	352.070
95.390	245.242	3	1	1	112.440	104.334	352.070
95.702	246.192	3	1	1	110.599	104.334	352.070
96.014	247.142	3	1	1	116.141	104.334	352.070
96.326	248.092	3	1	1	117.424	104.334	352.070
96.638	249.042	3	1	1	117.998	104.334	352.070
96.950	249.992	3	1	1	116.414	104.334	352.070
97.262	250.942	3	1	1	112.155	104.334	352.070
97.622	251.875	3	1	1	111.047	104.334	352.070
98.128	252.738	3	1	1	112.159	104.334	352.070
98.634	253.600	3	1	1	116.451	104.334	352.070
99.140	254.463	3	1	1	112.471	104.334	352.070
99.646	255.326	3	1	1	116.000	104.334	352.070
100.152	256.188	3	1	1	117.841	104.334	352.070
100.658	257.051	3	1	1	116.742	104.334	352.070
101.163	257.913	3	1	1	115.308	104.334	352.070
101.669	258.776	3	1	1	111.968	104.334	352.070
102.175	259.638	3	1	1	109.944	104.334	352.070
102.681	260.501	3	1	1	111.455	104.334	352.070
103.187	261.364	3	1	1	113.289	104.334	352.070
103.693	262.226	3	1	1	111.052	104.334	352.070
104.230	263.070	3	1	1	110.688	104.334	352.070
104.815	263.881	3	1	1	112.348	104.334	352.070
105.400	264.692	3	1	1	111.114	104.334	352.070
105.985	265.503	3	1	1	111.009	104.334	352.070
106.570	266.314	3	1	1	115.123	104.334	352.070
107.154	267.125	3	1	1	115.971	104.334	352.070
107.739	267.937	3	1	1	113.672	104.334	352.070
108.324	268.748	3	1	1	109.614	104.334	352.070
108.909	269.559	3	1	1	113.942	104.334	352.070
109.494	270.370	3	1	1	115.721	104.334	352.070
110.078	271.181	3	1	1	112.796	104.334	352.070
110.663	271.992	3	1	1	114.481	104.334	352.070
111.248	272.804	3	1	1	114.210	104.334	352.070
111.839	273.611	3	1	1	116.650	104.334	352.070
112.463	274.392	3	1	1	115.597	104.334	352.070
113.088	275.172	3	1	1	115.938	104.334	352.070
113.713	275.953	3	1	1	119.559	104.334	352.070
114.337	276.734	3	1	1	112.655	104.334	352.070
114.962	277.515	3	1	1	113.602	104.334	352.070
115.587	278.296	3	1	1	116.147	104.334	352.070
116.211	279.077	3	1	1	111.600	104.334	352.070
116.836	279.858	3	1	1	111.647	104.334	352.070
117.461	280.638	3	1	1	118.043	104.334	352.070
118.085	281.419	3	1	1	118.152	104.334	352.070
118.710	282.200	3	1	1	116.742	104.334	352.070
119.379	282.944	3	1	1	116.928	104.334	352.070
120.051	283.684	3	1	1	117.239	104.334	352.070
120.723	284.425	3	1	1	120.078	104.334	352.070
121.395	285.166	3	1	1	110.122	104.334	352.070
122.066	285.906	3	1	1	113.276	104.334	352.070
122.738	286.647	3	1	1	118.655	104.334	352.070
123.410	287.388	3	1	1	118.605	104.334	352.070
124.082	288.129	3	1	1	120.877	104.334	352.070
124.754	288.869	3	1	1	117.236	104.334	352.070
125.425	289.610	3	1	1	119.796	104.334	352.070
126.097	290.351	3	1	1	117.592	104.334	352.070
126.769	291.091	3	1	1	115.003	104.334	352.070
127.441	291.832	3	1	1	119.168	104.334	352.070
128.113	292.573	3	1	1	119.234	104.334	352.070
128.820	293.279	3	1	1	117.926	104.334	352.070
129.574	293.937	3	1	1	124.122	104.334	352.070
130.327	294.594	3	1	1	121.878	104.334	352.070
131.081	295.252	3	1	1	120.699	104.334	352.070
131.835	295.909	3	1	1	116.282	104.334	352.070
132.588	296.566	3	1	1	116.746	104.334	352.070
133.342	297.224	3	1	1	116.555	104.334	352.070
134.095	297.881	3	1	1	120.722	104.334	352.070
134.849	298.538	3	1	1	115.930	104.334	352.070
135.602	299.196	3	1	1	116.538	104.334	352.070
136.356	299.853	3	1	1	123.067	104.334	352.070
137.110	300.511	3	1	1	123.001	104.334	352.070
137.863	301.168	3	1	1	121.809	104.334	352.070
138.617	301.825	3	1	1	119.683	104.334	352.070
139.370	302.483	3	1	1	120.527	104.334	352.070
140.124	303.140	3	1	1	122.575	104.334	352.070
140.954	303.698	3	1	1	120.034	104.334	352.070
141.797	304.235	3	1	1	119.232	104.334	352.070
142.641	304.772	3	1	1	118.916	104.334	352.070
143.485	305.309	3	1	1	117.826	104.334	352.070
144.328	305.845	3	1	1	119.310	104.334	352.070
145.172	306.382	3	1	1	124.126	104.334	352.070
146.016	306.919	3	1	1	116.408	104.334	352.070
146.859	307.456	3	1	1	117.773	104.334	352.070
147.703	307.993	3	1	1	115.437	104.334	352.070
148.547	308.530	3	1	1	120.199	104.334	352.070
149.390	309.067	3	1	1	119.808	104.334	352.070
150.234	309.604	3	1	1	127.991	104.334	352.070
151.078	310.140	3	1	1	123.540	104.334	352.070
152.029	310.448	3	1	1	118.506	104.334	352.070
152.999	310.694	3	1	1	118.055	104.334	352.070
153.968	310.940	3	1	1	118.876	104.334	352.070
154.937	311.186	3	1	1	124.122	104.334	352.070
155.906	311.431	3	1	1	121.566	104.334	352.070
156.876	311.677	3	1	1	117.920	104.334	352.070
157.845	311.923	3	1	1	120.229	104.334	352.070
158.814	312.169	3	1	1	115.924	104.334	352.070
159.784	312.415	3	1	1	116.774	104.334	352.070
160.753	312.661	3	1	1	121.260	104.334	352.070
161.722	312.907	3	1	1	125.697	104.334	352.070
162.691	313.153	3	1	1	128.007	104.334	352.070
163.661	313.399	3	1	1	120.259	104.334	352.070
164.630	313.645	3	1	1	122.146	104.334	352.070
165.599	313.891	3	1	1	119.103	104.334	352.070
166.569	314.137	3	1	1	122.026	104.334	352.070
167.538	314.383	3	1	1	116.893	104.334	352.070
168.516	314.589	3	1	1	117.098	104.334	352.070
169.502	314.760	3	1	1	118.679	104.334	352.070
170.487	314.930	3	1	1	118.320	104.334	352.070
171.472	315.101	3	1	1	120.195	104.334	352.070
172.458	315.272	3	1	1	120.123	104.334	352.070
173.443	315.442	3	1	1	124.486	104.334	352.070
174.428	315.613	3	1	1	122.558	104.334	352.070
175.414	315.783	3	1	1	120.325	104.334	352.070
176.399	315.954	3	1	1	123.231	104.334	352.070
177.384	316.124	3	1	1	127.455	104.334	352.070
178.370	316.295	3	1	1	123.779	104.334	352.070
179.355	316.465	3	1	1	122.745	104.334	352.070
180.341	316.636	3	1	1	118.860	104.334	352.070
181.325	316.809	3	1	1	121.471	104.334	352.070
182.309	316.988	3	1	1	120.660	104.334	352.070
183.293	317.167	3	1	1	125.028	104.334	352.070
184.277	317.346	3	1	1	124.077	104.334	352.070
185.261	317.525	3	1	1	121.186	104.334	352.070
186.245	317.704	3	1	1	124.553	104.334	352.070
187.229	317.882	3	1	1	127.941	104.334	352.070
188.212	318.061	3	1	1	127.210	104.334	352.070
189.196	318.240	3	1	1	121.509	104.334	352.070
190.180	318.419	3	1	1	116.898	104.334	352.070
191.164	318.598	3	1	1	118.908	104.334	352.070
192.148	318.777	3	1	1	116.870	104.334	352.070
193.132	318.956	3	1	1	123.424	104.334	352.070
194.116	319.135	3	1	1	123.203	104.334	352.070
195.106	319.275	3	1	1	125.018	104.334	352.070
196.103	319.345	3	1	1	120.922	104.334	352.070
197.101	319.415	3	1	1	124.625	104.334	352.070
198.098	319.485	3	1	1	120.427	104.334	352.070
199.096	319.555	3	1	1	122.646	104.334	352.070
200.094	319.625	3	1	1	124.428	104.334	352.070
201.091	319.695	3	1	1	118.577	104.334	352.070
202.089	319.765	3	1	1	117.232	104.334	352.070
203.086	319.835	3	1	1	120.908	104.334	352.070
204.084	319.905	3	1	1	117.769	104.334	352.070
205.081	319.975	3	1	1	122.340	104.334	352.070
206.079	320.045	3	1	1	118.439	104.334	352.070
207.076	320.115	3	1	1	114.790	104.334	352.070
208.074	320.185	3	1	1	121.822	104.334	352.070
209.073	320.233	3	1	1	118.525	104.334	352.070
210.046	320.003	3	1	1	114.262	104.334	352.070
211.019	319.773	3	1	1	116.908	104.334	352.070
211.992	319.543	3	1	1	115.301	104.334	352.070
212.965	319.312	3	1	1	118.831	104.334	352.070
213.939	319.082	3	1	1	118.503	104.334	352.070
214.912	318.852	3	1	1	109.088	104.334	352.070
215.885	318.622	3	1	1	116.980	104.334	352.070
216.858	318.392	3	1	1	118.052	104.334	352.070
217.831	318.162	3	1	1	113.769	104.334	352.070
218.804	317.932	3	1	1	113.062	104.334	352.070
219.778	317.702	3	1	1	117.283	104.334	352.070
220.751	317.472	3	1	1	110.823	104.334	352.070
221.724	317.242	3	1	1	116.559	104.334	352.070
222.697	317.012	3	1	1	124.229	104.334	352.070
223.670	316.781	3	1	1	115.223	104.334	352.070
224.643	316.551	3	1	1	112.712	104.334	352.070
225.617	316.321	3	1	1	114.029	104.334	352.070
226.590	316.091	3	1	1	114.012	104.334	352.070
227.563	315.861	3	1	1	113.851	104.334	352.070
228.536	315.631	3	1	1	113.369	104.334	352.070
229.509	315.401	3	1	1	114.695	104.334	352.070
230.483	315.171	3	1	1	116.635	104.334	352.070
231.430	314.850	3	1	1	116.105	104.334	352.070
232.376	314.528	3	1	1	114.636	104.334	352.070
233.323	314.206	3	1	1	117.323	104.334	352.070
234.270	313.883	3	1	1	112.436	104.334	352.070
235.216	313.561	3	1	1	113.330	104.334	352.070
236.163	313.239	3	1	1	116.560	104.334	352.070
237.110	312.917	3	1	1	116.336	104.334	352.070
238.056	312.594	3	1	1	118.503	104.334	352.070
239.003	312.272	3	1	1	115.627	104.334	352.070
239.950	311.950	3	1	1	115.872	104.334	352.070
240.896	311.628	3	1	1	116.092	104.334	352.070
241.843	311.305	3	1	1	115.549	104.334	352.070
242.790	310.983	3	1	1	120.030	104.334	352.070
243.736	310.661	3	1	1	113.215	104.334	352.070
244.683	310.338	3	1	1	116.031	104.334	352.070
245.629	310.016	3	1	1	113.002	104.334	352.070
246.565	309.663	3	1	1	116.728	104.334	352.070
247.484	309.269	3	1	1	116.845	104.334	352.070
248.403	308.875	3	1	1	114.990	104.334	352.070
249.322	308.481	3	1	1	115.196	104.334	352.070
250.241	308.087	3	1	1	110.066	104.334	352.070
251.161	307.693	3	1	1	117.705	104.334	352.070
252.080	307.299	3	1	1	109.611	104.334	352.070
252.999	306.905	3	1	1	113.000	104.334	352.070
253.918	306.511	3	1	1	116.144	104.334	352.070
254.837	306.117	3	1	1	115.158	104.334	352.070
255.740	305.687	3	1	1	120.597	104.334	352.070
256.594	305.167	3	1	1	117.289	104.334	352.070
257.448	304.646	3	1	1	116.286	104.334	352.070
258.302	304.126	3	1	1	114.464	104.334	352.070
259.155	303.605	3	1	1	116.008	104.334	352.070
260.009	303.085	3	1	1	114.040	104.334	352.070
260.863	302.564	3	1	1	111.596	104.334	352.070
261.717	302.044	3	1	1	110.495	104.334	352.070
262.571	301.523	3	1	1	114.636	104.334	352.070
263.425	301.003	3	1	1	110.836	104.334	352.070
264.280	300.484	3	1	1	114.565	104.334	352.070
265.157	300.004	3	1	1	116.982	104.334	352.070
266.034	299.524	3	1	1	115.144	104.334	352.070
266.912	299.045	3	1	1	114.915	104.334	352.070
267.789	298.565	3	1	1	115.272	104.334	352.070
268.667	298.085	3	1	1	117.549	104.334	352.070
269.544	297.605	3	1	1	116.508	104.334	352.070
270.421	297.126	3	1	1	118.317	104.334	352.070
271.299	296.646	3	1	1	114.170	104.334	352.070
272.176	296.166	3	1	1	112.758	104.334	352.070
273.054	295.686	3	1	1	113.433	104.334	352.070
273.931	295.207	3	1	1	111.211	104.334	352.070
274.809	294.727	3	1	1	108.290	104.334	352.070
275.686	294.247	3	1	1	112.327	104.334	352.070
276.473	293.630	3	1	1	110.818	104.334	352.070
277.238	292.987	3	1	1	109.499	104.334	352.070
278.004	292.343	3	1	1	109.796	104.334	352.070
278.770	291.700	3	1	1	111.908	104.334	352.070
279.535	291.057	3	1	1	116.374	104.334	352.070
280.301	290.414	3	1	1	120.212	104.334	352.070
281.067	289.771	3	1	1	114.083	104.334	352.070
281.832	289.127	3	1	1	114.678	104.334	352.070
282.598	288.484	3	1	1	113.325	104.334	352.070
283.364	287.841	3	1	1	113.103	104.334	352.070
284.130	287.198	3	1	1	112.109	104.334	352.070
284.825	286.479	3	1	1	113.284	104.334	352.070
285.517	285.758	3	1	1	115.381	104.334	352.070
286.209	285.036	3	1	1	114.755	104.334	352.070
286.901	284.314	3	1	1	115.793	104.334	352.070
287.593	283.592	3	1	1	115.761	104.334	352.070
288.285	282.870	3	1	1	112.785	104.334	352.070
288.977	282.148	3	1	1	112.869	104.334	352.070
289.669	281.426	3	1	1	115.772	104.334	352.070
290.360	280.704	3	1	1	109.501	104.334	352.070
291.052	279.982	3	1	1	113.944	104.334	352.070
291.744	279.260	3	1	1	110.034	104.334	352.070
292.400	278.505	3	1	1	115.558	104.334	352.070
293.051	277.746	3	1	1	118.046	104.334	352.070
293.702	276.987	3	1	1	112.052	104.334	352.070
294.353	276.227	3	1	1	112.184	104.334	352.070
295.004	275.468	3	1	1	113.785	104.334	352.070
295.654	274.709	3	1	1	110.186	104.334	352.070
296.305	273.949	3	1	1	111.047	104.334	352.070
296.956	273.190	3	1	1	121.338	104.334	352.070
297.607	272.431	3	1	1	114.635	104.334	352.070
298.258	271.672	3	1	1	114.310	104.334	352.070
298.908	270.912	3	1	1	114.414	104.334	352.070
299.559	270.153	3	1	1	114.231	104.334	352.070
300.087	269.304	3	1	1	111.424	104.334	352.070
300.518	268.401	3	1	1	116.202	104.334	352.070
300.949	267.499	3	1	1	113.582	104.334	352.070
301.380	266.597	3	1	1	115.953	104.334	352.070
301.811	265.695	3	1	1	109.735	104.334	352.070
302.243	264.792	3	1	1	115.171	104.334	352.070
302.674	263.890	3	1	1	114.906	104.334	352.070
303.105	262.988	3	1	1	112.145	104.334	352.070
303.536	262.086	3	1	1	113.278	104.334	352.070
303.968	261.183	3	1	1	109.188	104.334	352.070
304.399	260.281	3	1	1	110.989	104.334	352.070
304.830	259.379	3	1	1	111.417	104.334	352.070
305.261	258.477	3	1	1	114.568	104.334	352.070
305.704	257.580	3	1	1	111.891	104.334	352.070
306.147	256.684	3	1	1	110.192	104.334	352.070
306.590	255.787	3	1	1	109.671	104.334	352.070
307.033	254.890	3	1	1	115.426	104.334	352.070
307.476	253.994	3	1	1	110.910	104.334	352.070
307.918	253.097	3	1	1	110.605	104.334	352.070
308.361	252.201	3	1	1	108.496	104.334	352.070
308.804	251.304	3	1	1	111.016	104.334	352.070
