X	Y	C	Z	T	Intensity	BG	MX
83.000	127.167	3	1	1	160.766	127.292	960.012
82.410	127.974	3	1	1	159.170	127.292	960.012
81.820	128.781	3	1	1	163.730	127.292	960.012
81.230	129.589	3	1	1	157.407	127.292	960.012
80.640	130.396	3	1	1	166.009	127.292	960.012
80.050	131.204	3	1	1	164.601	127.292	960.012
79.460	132.011	3	1	1	164.873	127.292	960.012
78.870	132.818	3	1	1	163.059	127.292	960.012
78.280	133.626	3	1	1	162.194	127.292	960.012
77.690	134.433	3	1	1	157.303	127.292	960.012
77.100	135.241	3	1	1	156.621	127.292	960.012
76.493	136.036	3	1	1	155.020	127.292	960.012
75.842	136.795	3	1	1	164.799	127.292	960.012
75.192	137.554	3	1	1	158.787	127.292	960.012
74.541	138.313	3	1	1	160.387	127.292	960.012
73.890	139.073	3	1	1	165.626	127.292	960.012
73.239	139.832	3	1	1	156.958	127.292	960.012
72.589	140.591	3	1	1	159.108	127.292	960.012
71.938	141.350	3	1	1	159.200	127.292	960.012
71.309	142.128	3	1	1	157.387	127.292	960.012
70.697	142.919	3	1	1	160.034	127.292	960.012
70.085	143.710	3	1	1	150.822	127.292	960.012
69.473	144.500	3	1	1	160.163	127.292	960.012
68.861	145.291	3	1	1	168.578	127.292	960.012
68.248	146.082	3	1	1	159.756	127.292	960.012
67.655	146.887	3	1	1	152.750	127.292	960.012
67.434	147.862	3	1	1	157.628	127.292	960.012
67.214	148.837	3	1	1	158.968	127.292	960.012
66.994	149.813	3	1	1	159.691	127.292	960.012
66.774	150.788	3	1	1	156.682	127.292	960.012
66.553	151.764	3	1	1	160.417	127.292	960.012
66.333	152.739	3	1	1	160.598	127.292	960.012
66.113	153.715	3	1	1	156.742	127.292	960.012
65.893	154.690	3	1	1	158.115	127.292	960.012
65.672	155.665	3	1	1	165.535	127.292	960.012
65.452	156.641	3	1	1	166.303	127.292	960.012
65.176	157.602	3	1	1	165.557	127.292	960.012
64.836	158.542	3	1	1	152.414	127.292	960.012
64.496	159.483	3	1	1	156.783	127.292	960.012
64.155	160.423	3	1	1	164.998	127.292	960.012
63.815	161.364	3	1	1	156.056	127.292	960.012
63.475	162.304	3	1	1	156.663	127.292	960.012
63.135	163.244	3	1	1	154.800	127.292	960.012
62.795	164.185	3	1	1	170.195	127.292	960.012
62.460	165.127	3	1	1	162.971	127.292	960.012
62.156	166.079	3	1	1	155.831	127.292	960.012
61.851	167.032	3	1	1	157.253	127.292	960.012
61.547	167.985	3	1	1	166.770	127.292	960.012
61.243	168.937	3	1	1	155.182	127.292	960.012
60.939	169.890	3	1	1	156.391	127.292	960.012
60.635	170.843	3	1	1	153.347	127.292	960.012
60.331	171.795	3	1	1	158.543	127.292	960.012
60.027	172.748	3	1	1	165.418	127.292	960.012
59.896	173.739	3	1	1	164.493	127.292	960.012
59.782	174.733	3	1	1	159.514	127.292	960.012
59.669	175.726	3	1	1	157.899	127.292	960.012
59.555	176.720	3	1	1	163.578	127.292	960.012
59.441	177.713	3	1	1	164.618	127.292	960.012
59.327	178.707	3	1	1	162.336	127.292	960.012
59.214	179.700	3	1	1	165.348	127.292	960.012
59.100	180.694	3	1	1	158.349	127.292	960.012
58.986	181.687	3	1	1	160.237	127.292	960.012
58.872	182.681	3	1	1	158.571	127.292	960.012
58.759	183.674	3	1	1	161.669	127.292	960.012
58.624	184.665	3	1	1	156.194	127.292	960.012
58.487	185.656	3	1	1	163.522	127.292	960.012
58.350	186.647	3	1	1	166.442	127.292	960.012
58.214	187.637	3	1	1	155.828	127.292	960.012
58.077	188.628	3	1	1	152.958	127.292	960.012
57.941	189.618	3	1	1	160.362	127.292	960.012
57.804	190.609	3	1	1	156.301	127.292	960.012
57.654	191.598	3	1	1	159.913	127.292	960.012
57.495	192.585	3	1	1	154.871	127.292	960.012
57.337	193.572	3	1	1	153.266	127.292	960.012
57.178	194.560	3	1	1	161.300	127.292	960.012
57.019	195.547	3	1	1	160.424	127.292	960.012
56.861	196.534	3	1	1	154.652	127.292	960.012
56.702	197.522	3	1	1	155.891	127.292	960.012
56.543	198.509	3	1	1	156.298	127.292	960.012
56.385	199.496	3	1	1	162.805	127.292	960.012
56.226	200.484	3	1	1	159.897	127.292	960.012
56.067	201.471	3	1	1	162.733	127.292	960.012
55.908	202.458	3	1	1	167.387	127.292	960.012
55.750	203.446	3	1	1	163.301	127.292	960.012
55.591	204.433	3	1	1	164.065	127.292	960.012
55.467	205.425	3	1	1	159.182	127.292	960.012
55.391	206.422	3	1	1	158.130	127.292	960.012
55.314	207.419	3	1	1	157.462	127.292	960.012
55.237	208.417	3	1	1	159.797	127.292	960.012
55.160	209.414	3	1	1	159.851	127.292	960.012
55.084	210.411	3	1	1	159.974	127.292	960.012
55.007	211.408	3	1	1	152.554	127.292	960.012
54.930	212.405	3	1	1	154.505	127.292	960.012
54.854	213.402	3	1	1	156.432	127.292	960.012
54.777	214.399	3	1	1	158.297	127.292	960.012
54.750	215.398	3	1	1	154.016	127.292	960.012
54.750	216.398	3	1	1	151.916	127.292	960.012
54.750	217.398	3	1	1	153.752	127.292	960.012
54.750	218.398	3	1	1	156.292	127.292	960.012
54.750	219.398	3	1	1	155.771	127.292	960.012
54.750	220.398	3	1	1	160.261	127.292	960.012
54.750	221.398	3	1	1	161.293	127.292	960.012
54.750	222.398	3	1	1	158.579	127.292	960.012
54.750	223.398	3	1	1	156.070	127.292	960.012
54.750	224.398	3	1	1	157.348	127.292	960.012
54.750	225.398	3	1	1	158.410	127.292	960.012
54.750	226.398	3	1	1	156.123	127.292	960.012
54.766	227.398	3	1	1	155.819	127.292	960.012
54.783	228.398	3	1	1	153.829	127.292	960.012
54.801	229.398	3	1	1	150.999	127.292	960.012
54.818	230.398	3	1	1	155.127	127.292	960.012
54.836	231.398	3	1	1	155.712	127.292	960.012
54.853	232.398	3	1	1	151.125	127.292	960.012
54.871	233.397	3	1	1	148.339	127.292	960.012
54.889	234.397	3	1	1	157.616	127.292	960.012
54.906	235.397	3	1	1	167.688	127.292	960.012
54.924	236.397	3	1	1	160.157	127.292	960.012
54.941	237.397	3	1	1	148.325	127.292	960.012
54.959	238.397	3	1	1	151.744	127.292	960.012
54.976	239.397	3	1	1	155.744	127.292	960.012
54.994	240.396	3	1	1	154.949	127.292	960.012
55.083	241.392	3	1	1	149.556	127.292	960.012
55.211	242.384	3	1	1	145.562	127.292	960.012
55.339	243.376	3	1	1	153.655	127.292	960.012
55.467	244.368	3	1	1	157.171	127.292	960.012
55.595	245.360	3	1	1	156.963	127.292	960.012
55.723	246.351	3	1	1	153.851	127.292	960.012
55.851	247.343	3	1	1	150.166	127.292	960.012
55.979	248.335	3	1	1	151.435	127.292	960.012
56.231	249.303	3	1	1	147.008	127.292	960.012
56.507	250.264	3	1	1	155.474	127.292	960.012
56.783	251.225	3	1	1	150.553	127.292	960.012
57.060	252.186	3	1	1	159.752	127.292	960.012
57.336	253.147	3	1	1	155.198	127.292	960.012
57.612	254.108	3	1	1	153.078	127.292	960.012
57.889	255.069	3	1	1	153.388	127.292	960.012
58.165	256.030	3	1	1	161.808	127.292	960.012
58.441	256.991	3	1	1	159.775	127.292	960.012
58.718	257.952	3	1	1	159.852	127.292	960.012
58.994	258.913	3	1	1	159.978	127.292	960.012
59.270	259.874	3	1	1	147.506	127.292	960.012
59.546	260.835	3	1	1	148.310	127.292	960.012
59.823	261.796	3	1	1	153.303	127.292	960.012
60.224	262.712	3	1	1	140.565	127.292	960.012
60.630	263.626	3	1	1	147.103	127.292	960.012
61.036	264.540	3	1	1	154.084	127.292	960.012
61.442	265.454	3	1	1	154.564	127.292	960.012
61.849	266.368	3	1	1	159.517	127.292	960.012
62.255	267.281	3	1	1	151.942	127.292	960.012
62.661	268.195	3	1	1	145.122	127.292	960.012
63.067	269.109	3	1	1	149.622	127.292	960.012
63.473	270.023	3	1	1	153.452	127.292	960.012
63.879	270.937	3	1	1	147.816	127.292	960.012
64.285	271.851	3	1	1	150.786	127.292	960.012
64.692	272.764	3	1	1	145.774	127.292	960.012
65.098	273.678	3	1	1	153.695	127.292	960.012
65.504	274.592	3	1	1	143.306	127.292	960.012
65.910	275.506	3	1	1	141.802	127.292	960.012
66.316	276.420	3	1	1	154.692	127.292	960.012
66.877	277.248	3	1	1	153.107	127.292	960.012
67.549	277.988	3	1	1	147.283	127.292	960.012
68.222	278.728	3	1	1	147.090	127.292	960.012
68.895	279.467	3	1	1	139.901	127.292	960.012
69.567	280.207	3	1	1	144.383	127.292	960.012
70.240	280.947	3	1	1	147.863	127.292	960.012
70.913	281.687	3	1	1	154.058	127.292	960.012
71.585	282.427	3	1	1	155.904	127.292	960.012
72.258	283.167	3	1	1	157.075	127.292	960.012
72.931	283.907	3	1	1	153.433	127.292	960.012
73.325	284.826	3	1	1	156.479	127.292	960.012
73.557	285.799	3	1	1	155.873	127.292	960.012
73.790	286.771	3	1	1	155.543	127.292	960.012
74.023	287.744	3	1	1	152.025	127.292	960.012
74.256	288.716	3	1	1	148.305	127.292	960.012
74.489	289.689	3	1	1	155.722	127.292	960.012
74.722	290.661	3	1	1	147.196	127.292	960.012
74.955	291.634	3	1	1	147.555	127.292	960.012
75.187	292.606	3	1	1	149.119	127.292	960.012
75.420	293.579	3	1	1	151.376	127.292	960.012
75.653	294.551	3	1	1	155.658	127.292	960.012
75.886	295.524	3	1	1	151.540	127.292	960.012
76.429	296.364	3	1	1	142.072	127.292	960.012
77.191	297.011	3	1	1	143.661	127.292	960.012
77.954	297.658	3	1	1	148.018	127.292	960.012
78.716	298.305	3	1	1	144.403	127.292	960.012
79.479	298.952	3	1	1	147.034	127.292	960.012
80.241	299.599	3	1	1	152.539	127.292	960.012
81.004	300.246	3	1	1	148.311	127.292	960.012
81.766	300.893	3	1	1	140.101	127.292	960.012
82.529	301.540	3	1	1	147.880	127.292	960.012
83.291	302.187	3	1	1	153.164	127.292	960.012
84.054	302.834	3	1	1	153.181	127.292	960.012
84.933	303.311	3	1	1	155.387	127.292	960.012
85.843	303.725	3	1	1	150.861	127.292	960.012
86.753	304.140	3	1	1	149.074	127.292	960.012
87.663	304.554	3	1	1	152.174	127.292	960.012
88.573	304.969	3	1	1	143.701	127.292	960.012
89.483	305.383	3	1	1	148.476	127.292	960.012
90.393	305.798	3	1	1	148.548	127.292	960.012
91.303	306.212	3	1	1	152.916	127.292	960.012
92.213	306.627	3	1	1	152.117	127.292	960.012
93.096	307.097	3	1	1	142.398	127.292	960.012
93.948	307.620	3	1	1	141.806	127.292	960.012
94.800	308.143	3	1	1	147.901	127.292	960.012
95.653	308.666	3	1	1	145.293	127.292	960.012
96.505	309.189	3	1	1	142.998	127.292	960.012
97.357	309.712	3	1	1	146.019	127.292	960.012
98.210	310.235	3	1	1	140.702	127.292	960.012
99.062	310.758	3	1	1	146.097	127.292	960.012
99.914	311.281	3	1	1	145.808	127.292	960.012
100.726	311.865	3	1	1	149.685	127.292	960.012
101.533	312.455	3	1	1	148.281	127.292	960.012
102.340	313.046	3	1	1	148.515	127.292	960.012
103.147	313.636	3	1	1	146.838	127.292	960.012
103.954	314.227	3	1	1	155.403	127.292	960.012
104.761	314.817	3	1	1	154.009	127.292	960.012
105.568	315.408	3	1	1	151.856	127.292	960.012
106.375	315.998	3	1	1	151.199	127.292	960.012
107.176	316.598	3	1	1	150.959	127.292	960.012
107.968	317.208	3	1	1	148.337	127.292	960.012
108.759	317.819	3	1	1	153.276	127.292	960.012
109.551	318.430	3	1	1	143.913	127.292	960.012
110.343	319.041	3	1	1	147.892	127.292	960.012
111.135	319.652	3	1	1	147.682	127.292	960.012
111.927	320.262	3	1	1	150.088	127.292	960.012
112.732	320.856	3	1	1	144.927	127.292	960.012
113.678	321.179	3	1	1	144.527	127.292	960.012
114.624	321.502	3	1	1	148.206	127.292	960.012
115.571	321.825	3	1	1	154.693	127.292	960.012
116.517	322.148	3	1	1	153.621	127.292	960.012
117.463	322.471	3	1	1	153.147	127.292	960.012
118.410	322.794	3	1	1	148.073	127.292	960.012
119.356	323.118	3	1	1	147.302	127.292	960.012
120.333	323.330	3	1	1	149.976	127.292	960.012
121.315	323.523	3	1	1	149.659	127.292	960.012
122.296	323.716	3	1	1	152.320	127.292	960.012
123.277	323.909	3	1	1	142.954	127.292	960.012
124.258	324.101	3	1	1	142.199	127.292	960.012
125.240	324.294	3	1	1	145.936	127.292	960.012
126.221	324.487	3	1	1	147.281	127.292	960.012
127.202	324.680	3	1	1	140.909	127.292	960.012
128.183	324.872	3	1	1	142.079	127.292	960.012
129.124	325.210	3	1	1	155.216	127.292	960.012
129.935	325.796	3	1	1	152.734	127.292	960.012
130.746	326.381	3	1	1	148.352	127.292	960.012
131.556	326.967	3	1	1	151.402	127.292	960.012
132.367	327.552	3	1	1	148.105	127.292	960.012
133.178	328.138	3	1	1	146.551	127.292	960.012
133.989	328.723	3	1	1	147.364	127.292	960.012
134.799	329.309	3	1	1	146.256	127.292	960.012
135.106	330.260	3	1	1	150.022	127.292	960.012
135.388	331.220	3	1	1	147.950	127.292	960.012
135.696	332.171	3	1	1	144.066	127.292	960.012
136.683	332.331	3	1	1	145.775	127.292	960.012
137.670	332.492	3	1	1	137.909	127.292	960.012
138.657	332.652	3	1	1	141.635	127.292	960.012
139.644	332.812	3	1	1	152.696	127.292	960.012
140.631	332.972	3	1	1	145.461	127.292	960.012
141.618	333.132	3	1	1	142.398	127.292	960.012
142.616	333.059	3	1	1	146.433	127.292	960.012
143.606	332.923	3	1	1	148.314	127.292	960.012
144.597	332.787	3	1	1	149.192	127.292	960.012
145.588	332.651	3	1	1	141.529	127.292	960.012
146.578	332.515	3	1	1	138.990	127.292	960.012
147.569	332.379	3	1	1	143.896	127.292	960.012
148.560	332.243	3	1	1	149.512	127.292	960.012
149.551	332.107	3	1	1	152.890	127.292	960.012
150.543	331.985	3	1	1	147.899	127.292	960.012
151.540	331.913	3	1	1	150.057	127.292	960.012
152.538	331.840	3	1	1	149.097	127.292	960.012
153.535	331.768	3	1	1	142.839	127.292	960.012
154.533	331.696	3	1	1	146.196	127.292	960.012
155.530	331.623	3	1	1	151.075	127.292	960.012
156.527	331.551	3	1	1	152.060	127.292	960.012
157.525	331.479	3	1	1	150.844	127.292	960.012
158.522	331.407	3	1	1	149.031	127.292	960.012
159.519	331.334	3	1	1	149.531	127.292	960.012
160.517	331.262	3	1	1	153.560	127.292	960.012
161.514	331.190	3	1	1	153.583	127.292	960.012
162.495	330.994	3	1	1	154.445	127.292	960.012
163.463	330.742	3	1	1	157.138	127.292	960.012
164.430	330.489	3	1	1	155.225	127.292	960.012
165.398	330.237	3	1	1	150.424	127.292	960.012
166.123	329.548	3	1	1	155.084	127.292	960.012
166.716	328.743	3	1	1	153.689	127.292	960.012
167.309	327.938	3	1	1	150.057	127.292	960.012
167.902	327.133	3	1	1	156.406	127.292	960.012
168.720	326.557	3	1	1	148.475	127.292	960.012
169.571	326.033	3	1	1	153.747	127.292	960.012
170.423	325.509	3	1	1	146.720	127.292	960.012
171.275	324.985	3	1	1	150.280	127.292	960.012
172.126	324.461	3	1	1	148.863	127.292	960.012
173.122	324.555	3	1	1	146.919	127.292	960.012
174.085	324.826	3	1	1	148.272	127.292	960.012
175.047	325.097	3	1	1	150.362	127.292	960.012
176.010	325.367	3	1	1	148.192	127.292	960.012
176.973	325.638	3	1	1	156.635	127.292	960.012
177.951	325.843	3	1	1	151.920	127.292	960.012
178.951	325.878	3	1	1	160.821	127.292	960.012
179.950	325.912	3	1	1	158.236	127.292	960.012
180.950	325.947	3	1	1	152.259	127.292	960.012
181.949	325.981	3	1	1	157.473	127.292	960.012
182.945	326.068	3	1	1	155.113	127.292	960.012
183.934	326.218	3	1	1	156.607	127.292	960.012
184.922	326.369	3	1	1	151.643	127.292	960.012
185.911	326.519	3	1	1	157.400	127.292	960.012
186.900	326.670	3	1	1	154.027	127.292	960.012
187.888	326.820	3	1	1	150.376	127.292	960.012
188.877	326.970	3	1	1	151.238	127.292	960.012
189.866	327.121	3	1	1	148.007	127.292	960.012
190.838	326.886	3	1	1	143.372	127.292	960.012
191.760	326.500	3	1	1	153.082	127.292	960.012
192.682	326.114	3	1	1	158.769	127.292	960.012
193.605	325.727	3	1	1	157.193	127.292	960.012
194.527	325.341	3	1	1	153.943	127.292	960.012
195.450	324.955	3	1	1	155.491	127.292	960.012
196.372	324.569	3	1	1	156.023	127.292	960.012
197.295	324.183	3	1	1	157.033	127.292	960.012
198.286	324.049	3	1	1	157.610	127.292	960.012
199.278	323.926	3	1	1	150.042	127.292	960.012
200.270	323.803	3	1	1	142.393	127.292	960.012
201.263	323.680	3	1	1	147.039	127.292	960.012
202.255	323.557	3	1	1	148.298	127.292	960.012
203.248	323.434	3	1	1	151.050	127.292	960.012
204.240	323.311	3	1	1	151.299	127.292	960.012
205.232	323.188	3	1	1	152.470	127.292	960.012
206.225	323.065	3	1	1	146.306	127.292	960.012
207.223	323.000	3	1	1	153.187	127.292	960.012
208.223	323.000	3	1	1	162.151	127.292	960.012
209.223	323.000	3	1	1	155.288	127.292	960.012
210.223	323.000	3	1	1	152.594	127.292	960.012
211.223	323.000	3	1	1	156.704	127.292	960.012
212.223	323.000	3	1	1	155.875	127.292	960.012
213.223	323.000	3	1	1	162.088	127.292	960.012
214.223	323.000	3	1	1	162.543	127.292	960.012
215.223	323.000	3	1	1	158.051	127.292	960.012
216.223	323.000	3	1	1	153.689	127.292	960.012
217.223	323.000	3	1	1	142.615	127.292	960.012
218.223	323.000	3	1	1	148.710	127.292	960.012
219.217	323.104	3	1	1	152.752	127.292	960.012
220.194	323.321	3	1	1	150.816	127.292	960.012
221.170	323.538	3	1	1	155.728	127.292	960.012
222.146	323.755	3	1	1	146.549	127.292	960.012
223.122	323.972	3	1	1	148.548	127.292	960.012
224.098	324.189	3	1	1	152.767	127.292	960.012
225.074	324.405	3	1	1	148.102	127.292	960.012
226.051	324.622	3	1	1	150.307	127.292	960.012
227.027	324.839	3	1	1	154.209	127.292	960.012
228.003	325.056	3	1	1	153.281	127.292	960.012
228.979	325.273	3	1	1	148.419	127.292	960.012
229.955	325.490	3	1	1	145.609	127.292	960.012
230.945	325.346	3	1	1	155.359	127.292	960.012
231.932	325.185	3	1	1	147.084	127.292	960.012
232.919	325.023	3	1	1	153.218	127.292	960.012
233.906	324.862	3	1	1	150.871	127.292	960.012
234.893	324.701	3	1	1	148.754	127.292	960.012
235.880	324.540	3	1	1	138.552	127.292	960.012
236.867	324.379	3	1	1	157.208	127.292	960.012
237.853	324.218	3	1	1	156.469	127.292	960.012
238.840	324.057	3	1	1	144.192	127.292	960.012
239.827	323.896	3	1	1	151.018	127.292	960.012
240.814	323.734	3	1	1	152.415	127.292	960.012
241.801	323.573	3	1	1	153.024	127.292	960.012
242.798	323.650	3	1	1	149.086	127.292	960.012
243.763	323.913	3	1	1	156.176	127.292	960.012
244.728	324.176	3	1	1	148.068	127.292	960.012
245.693	324.439	3	1	1	150.576	127.292	960.012
246.657	324.702	3	1	1	153.307	127.292	960.012
247.622	324.965	3	1	1	142.784	127.292	960.012
248.621	325.000	3	1	1	144.951	127.292	960.012
249.621	325.000	3	1	1	148.336	127.292	960.012
250.621	325.000	3	1	1	155.042	127.292	960.012
251.621	325.000	3	1	1	149.983	127.292	960.012
252.621	325.000	3	1	1	144.609	127.292	960.012
253.621	325.000	3	1	1	149.264	127.292	960.012
254.614	324.882	3	1	1	151.615	127.292	960.012
255.565	324.572	3	1	1	148.097	127.292	960.012
256.517	324.263	3	1	1	143.025	127.292	960.012
257.468	323.954	3	1	1	147.605	127.292	960.012
258.419	323.645	3	1	1	143.262	127.292	960.012
259.370	323.336	3	1	1	141.489	127.292	960.012
260.321	323.027	3	1	1	147.648	127.292	960.012
261.272	322.718	3	1	1	151.913	127.292	960.012
262.223	322.409	3	1	1	146.888	127.292	960.012
263.174	322.100	3	1	1	155.638	127.292	960.012
264.125	321.791	3	1	1	153.472	127.292	960.012
265.056	321.427	3	1	1	152.434	127.292	960.012
265.985	321.056	3	1	1	159.407	127.292	960.012
266.913	320.685	3	1	1	150.148	127.292	960.012
267.842	320.313	3	1	1	152.819	127.292	960.012
268.770	319.942	3	1	1	145.943	127.292	960.012
269.699	319.570	3	1	1	142.917	127.292	960.012
270.627	319.199	3	1	1	146.041	127.292	960.012
271.556	318.828	3	1	1	144.590	127.292	960.012
272.550	318.721	3	1	1	140.059	127.292	960.012
273.549	318.686	3	1	1	140.929	127.292	960.012
274.549	318.650	3	1	1	141.130	127.292	960.012
275.548	318.614	3	1	1	145.244	127.292	960.012
276.548	318.579	3	1	1	137.965	127.292	960.012
277.547	318.543	3	1	1	141.360	127.292	960.012
278.546	318.507	3	1	1	148.521	127.292	960.012
279.330	317.886	3	1	1	148.736	127.292	960.012
280.017	317.159	3	1	1	149.124	127.292	960.012
280.703	316.432	3	1	1	147.853	127.292	960.012
281.390	315.705	3	1	1	155.744	127.292	960.012
282.076	314.978	3	1	1	143.710	127.292	960.012
282.763	314.251	3	1	1	141.260	127.292	960.012
283.555	313.641	3	1	1	154.595	127.292	960.012
284.395	313.097	3	1	1	153.065	127.292	960.012
285.234	312.554	3	1	1	146.764	127.292	960.012
286.074	312.011	3	1	1	144.089	127.292	960.012
286.914	311.468	3	1	1	145.084	127.292	960.012
287.749	310.918	3	1	1	151.410	127.292	960.012
288.581	310.363	3	1	1	149.323	127.292	960.012
289.413	309.808	3	1	1	155.826	127.292	960.012
290.245	309.253	3	1	1	142.578	127.292	960.012
290.576	308.310	3	1	1	149.723	127.292	960.012
290.504	307.312	3	1	1	146.139	127.292	960.012
290.907	306.397	3	1	1	152.954	127.292	960.012
291.338	305.495	3	1	1	151.430	127.292	960.012
291.769	304.592	3	1	1	152.570	127.292	960.012
292.199	303.690	3	1	1	150.332	127.292	960.012
292.630	302.787	3	1	1	149.074	127.292	960.012
293.061	301.885	3	1	1	153.869	127.292	960.012
293.788	301.198	3	1	1	151.181	127.292	960.012
294.556	300.558	3	1	1	147.504	127.292	960.012
295.324	299.917	3	1	1	147.249	127.292	960.012
296.092	299.277	3	1	1	154.715	127.292	960.012
296.861	298.637	3	1	1	153.271	127.292	960.012
